* Measurement data measured by REW V5.31
* Source: Headset (DS by VECLAN.COM), MICROPHONE (Master Volume), L, volume: 0.720. Timing signal peak level -18.0 dBFS, measurement signal peak level -15.3 dBFS
* Format: 2M Log Swept Sine, 1 sweep at -12.0 dBFS using an acoustic timing reference
* Dated: Apr 27, 2024 2:14:43 PM
* REW Settings:
*  C-weighting compensation: Off
*  Target level: 85.0 dB
* Note: ; Delay -0.1070 ms (-37 mm, -1.44 in) using estimated IR delay relative to Acoustic reference played from HEADPHONE R with no timing offset
* Measurement: 64 Audio U4s S2 m15 R
* Smoothing: 1/24 octave
* Frequency Step: 1/48 octave
* Start Frequency: 1.000 Hz
*
* Freq(Hz), SPL(dB), Phase(degrees)
1.000000, 72.096, 139.8899
1.015000, 73.319, 139.9013
1.030000, 74.479, 139.8182
1.044000, 75.495, 139.6624
1.060000, 76.564, 139.3987
1.075000, 77.465, 139.0746
1.090000, 78.260, 138.6844
1.106000, 79.001, 138.2225
1.120000, 79.590, 137.8205
1.138000, 80.291, 137.3327
1.150000, 80.726, 137.0262
1.172000, 81.463, 136.4916
1.180000, 81.713, 136.3001
1.206000, 82.459, 135.7062
1.220000, 82.824, 135.4009
1.241000, 83.327, 134.9570
1.250000, 83.527, 134.7705
1.265000, 83.843, 134.4634
1.280000, 84.138, 134.1590
1.315000, 84.757, 133.4503
1.320000, 84.839, 133.3484
1.340000, 85.152, 132.9369
1.360000, 85.447, 132.5181
1.380000, 85.729, 132.0501
1.400000, 86.003, 131.5536
1.430000, 86.411, 130.7780
1.450000, 86.686, 130.2382
1.475000, 87.029, 129.5484
1.500000, 87.341, 128.8757
1.525000, 87.610, 128.2355
1.550000, 87.839, 127.6260
1.575000, 88.034, 127.0216
1.600000, 88.199, 126.4006
1.625000, 88.339, 125.7974
1.650000, 88.459, 125.2073
1.675000, 88.565, 124.6258
1.700000, 88.661, 124.0487
1.725000, 88.754, 123.4718
1.750000, 88.846, 122.8912
1.775000, 88.945, 122.2864
1.800000, 89.055, 121.6377
1.825000, 89.178, 120.9779
1.850000, 89.311, 120.3127
1.875000, 89.444, 119.6545
1.900000, 89.574, 119.0090
1.925000, 89.702, 118.3773
1.950000, 89.826, 117.7601
1.975000, 89.948, 117.1400
2.000000, 90.068, 116.5000
2.030000, 90.208, 115.7485
2.060000, 90.345, 115.0106
2.090000, 90.480, 114.2831
2.120000, 90.613, 113.5625
2.140000, 90.701, 113.0843
2.180000, 90.874, 112.1074
2.200000, 90.959, 111.5986
2.240000, 91.128, 110.5841
2.270000, 91.251, 109.8318
2.300000, 91.371, 109.0904
2.330000, 91.489, 108.3617
2.360000, 91.605, 107.6461
2.400000, 91.757, 106.6652
2.430000, 91.868, 105.9382
2.470000, 92.013, 104.9877
2.500000, 92.121, 104.2871
2.540000, 92.262, 103.3660
2.580000, 92.400, 102.4360
2.620000, 92.536, 101.4740
2.650000, 92.636, 100.7589
2.690000, 92.766, 99.8174
2.720000, 92.861, 99.1227
2.760000, 92.986, 98.2156
2.800000, 93.108, 97.2902
2.850000, 93.257, 96.1586
2.900000, 93.402, 95.0601
2.950000, 93.542, 93.9863
3.000000, 93.678, 92.8917
3.040000, 93.783, 92.0131
3.070000, 93.860, 91.3622
3.110000, 93.961, 90.5082
3.150000, 94.059, 89.6730
3.200000, 94.179, 88.6279
3.250000, 94.295, 87.6030
3.300000, 94.409, 86.6100
3.350000, 94.520, 85.6367
3.400000, 94.627, 84.6415
3.450000, 94.730, 83.6491
3.500000, 94.831, 82.6798
3.550000, 94.928, 81.7399
3.600000, 95.023, 80.8064
3.650000, 95.116, 79.8949
3.700000, 95.205, 79.0085
3.750000, 95.292, 78.1364
3.820000, 95.408, 76.9053
3.870000, 95.489, 76.0424
3.950000, 95.613, 74.7157
4.000000, 95.688, 73.9026
4.060000, 95.777, 72.9493
4.120000, 95.863, 72.0202
4.180000, 95.946, 71.1052
4.250000, 96.041, 70.0371
4.310000, 96.119, 69.1561
4.370000, 96.196, 68.3051
4.440000, 96.282, 67.3164
4.500000, 96.354, 66.4910
4.550000, 96.413, 65.8191
4.620000, 96.493, 64.8767
4.680000, 96.559, 64.0893
4.750000, 96.636, 63.2047
4.820000, 96.711, 62.3282
4.870000, 96.763, 61.7123
4.940000, 96.836, 60.8713
5.000000, 96.896, 60.1555
5.080000, 96.974, 59.2193
5.150000, 97.041, 58.4289
5.220000, 97.106, 57.6377
5.300000, 97.178, 56.7485
5.380000, 97.248, 55.8832
5.450000, 97.307, 55.1301
5.520000, 97.365, 54.4002
5.600000, 97.429, 53.5761
5.700000, 97.506, 52.5573
5.800000, 97.579, 51.5679
5.900000, 97.649, 50.5968
6.000000, 97.716, 49.6474
6.080000, 97.767, 48.8923
6.150000, 97.809, 48.2525
6.220000, 97.851, 47.6156
6.300000, 97.896, 46.9043
6.400000, 97.950, 46.0322
6.500000, 98.000, 45.1730
6.600000, 98.049, 44.3414
6.700000, 98.094, 43.5238
6.800000, 98.136, 42.7267
6.900000, 98.177, 41.9437
7.000000, 98.215, 41.1855
7.100000, 98.252, 40.4401
7.200000, 98.286, 39.7137
7.300000, 98.318, 39.0000
7.400000, 98.348, 38.3050
7.500000, 98.376, 37.6167
7.620000, 98.406, 36.8151
7.750000, 98.435, 35.9776
7.880000, 98.461, 35.1614
8.000000, 98.482, 34.4399
8.120000, 98.501, 33.7456
8.250000, 98.518, 33.0232
8.380000, 98.533, 32.3384
8.500000, 98.546, 31.7377
8.620000, 98.559, 31.1703
8.750000, 98.573, 30.5891
8.850000, 98.585, 30.1654
9.000000, 98.606, 29.5706
9.120000, 98.626, 29.1136
9.250000, 98.651, 28.6308
9.380000, 98.682, 28.1617
9.500000, 98.713, 27.7217
9.620000, 98.749, 27.2750
9.750000, 98.791, 26.7786
9.880000, 98.827, 26.2530
10.000000, 98.852, 25.7448
10.150000, 98.874, 25.0417
10.300000, 98.885, 24.3097
10.440000, 98.887, 23.6003
10.600000, 98.880, 22.7751
10.750000, 98.866, 21.9972
10.900000, 98.845, 21.2259
11.060000, 98.815, 20.4086
11.200000, 98.784, 19.6874
11.380000, 98.736, 18.8260
11.500000, 98.700, 18.3000
11.720000, 98.630, 17.4357
11.800000, 98.606, 17.1547
12.060000, 98.537, 16.3221
12.200000, 98.509, 15.8828
12.410000, 98.476, 15.2699
12.500000, 98.465, 15.0152
12.650000, 98.447, 14.5964
12.800000, 98.432, 14.1791
13.150000, 98.396, 13.1414
13.200000, 98.391, 12.9839
13.400000, 98.367, 12.3631
13.600000, 98.340, 11.7756
13.800000, 98.307, 11.2386
14.000000, 98.274, 10.7608
14.300000, 98.227, 10.0874
14.500000, 98.202, 9.7053
14.750000, 98.181, 9.2721
15.000000, 98.172, 8.8495
15.250000, 98.176, 8.3496
15.500000, 98.184, 7.8176
15.750000, 98.188, 7.2649
16.000000, 98.186, 6.7114
16.250000, 98.181, 6.1324
16.500000, 98.174, 5.5806
16.750000, 98.170, 5.0508
17.000000, 98.170, 4.5188
17.250000, 98.174, 3.9390
17.500000, 98.174, 3.3306
17.750000, 98.167, 2.7096
18.000000, 98.149, 2.1021
18.250000, 98.122, 1.5233
18.500000, 98.090, 1.0243
18.750000, 98.060, 0.6161
19.000000, 98.038, 0.2842
19.250000, 98.029, -0.0338
19.500000, 98.031, -0.3532
19.750000, 98.040, -0.7012
20.000000, 98.048, -1.0835
20.299999, 98.050, -1.5864
20.600000, 98.044, -2.0482
20.900000, 98.035, -2.4240
21.200001, 98.037, -2.7393
21.400000, 98.048, -2.9442
21.799999, 98.091, -3.4510
22.000000, 98.118, -3.8018
22.400000, 98.151, -4.7514
22.700001, 98.140, -5.5688
23.000000, 98.090, -6.3424
23.299999, 98.010, -6.9659
23.600000, 97.919, -7.3456
24.000000, 97.818, -7.5001
24.299999, 97.778, -7.4989
24.700001, 97.769, -7.5574
25.000000, 97.780, -7.7472
25.400000, 97.789, -8.2191
25.799999, 97.776, -8.7908
26.200001, 97.748, -9.3349
26.500000, 97.728, -9.7021
26.900000, 97.715, -10.1810
27.200001, 97.715, -10.5962
27.600000, 97.715, -11.2662
28.000000, 97.698, -12.0271
28.500000, 97.643, -12.9455
29.000000, 97.569, -13.6140
29.500000, 97.514, -14.0289
30.000000, 97.495, -14.3629
30.400000, 97.495, -14.7073
30.700001, 97.492, -15.0107
31.100000, 97.476, -15.4215
31.500000, 97.449, -15.7693
32.000000, 97.421, -16.0541
32.500000, 97.415, -16.3098
33.000000, 97.422, -16.7027
33.500000, 97.412, -17.2706
34.000000, 97.372, -17.8594
34.500000, 97.319, -18.3566
35.000000, 97.273, -18.7972
35.500000, 97.236, -19.3193
36.000000, 97.187, -19.9562
36.500000, 97.114, -20.5930
37.000000, 97.026, -21.0609
37.500000, 96.954, -21.3097
38.200001, 96.926, -21.5115
38.700001, 96.953, -21.8217
39.500000, 97.005, -22.7989
40.000000, 97.005, -23.5401
40.599998, 96.975, -24.3026
41.200001, 96.940, -24.8252
41.799999, 96.922, -25.2224
42.500000, 96.909, -25.7107
43.099998, 96.885, -26.1419
43.700001, 96.849, -26.4933
44.400002, 96.813, -26.7844
45.000000, 96.798, -27.0649
45.500000, 96.787, -27.4081
46.200001, 96.754, -28.0014
46.799999, 96.711, -28.4755
47.500000, 96.674, -28.9866
48.200001, 96.647, -29.6421
48.700001, 96.610, -30.1769
49.400002, 96.533, -30.7655
50.000000, 96.480, -31.0358
50.799999, 96.461, -31.4043
51.500000, 96.449, -31.9584
52.200001, 96.406, -32.5486
53.000000, 96.339, -32.9995
53.799999, 96.297, -33.2603
54.500000, 96.293, -33.5684
55.200001, 96.290, -34.1536
56.000000, 96.230, -34.9226
57.000000, 96.135, -35.3537
58.000000, 96.136, -35.8247
59.000000, 96.099, -36.9045
60.000000, 95.988, -37.6987
60.799999, 95.922, -38.0765
61.500000, 95.882, -38.4871
62.200001, 95.833, -38.9676
63.000000, 95.761, -39.4019
64.000000, 95.705, -39.7575
65.000000, 95.679, -40.3924
66.000000, 95.603, -41.1398
67.000000, 95.513, -41.5058
68.000000, 95.476, -41.7379
69.000000, 95.463, -42.2934
70.000000, 95.408, -43.0344
71.000000, 95.329, -43.5758
72.000000, 95.269, -43.9986
73.000000, 95.224, -44.4900
74.000000, 95.175, -45.0313
75.000000, 95.122, -45.5355
76.199997, 95.059, -46.1388
77.500000, 94.980, -46.7593
78.800003, 94.891, -47.3090
80.000000, 94.815, -47.6918
81.199997, 94.762, -48.1017
82.500000, 94.714, -48.6746
83.800003, 94.663, -49.3479
85.000000, 94.608, -50.0108
86.199997, 94.543, -50.6421
87.500000, 94.468, -51.2894
88.500000, 94.405, -51.7346
90.000000, 94.324, -52.2524
91.199997, 94.282, -52.7949
92.500000, 94.202, -53.5432
93.800003, 94.098, -53.9511
95.000000, 94.039, -54.1712
96.199997, 93.998, -54.5242
97.500000, 93.944, -55.0359
98.800003, 93.865, -55.5405
100.000000, 93.781, -55.7905
101.500000, 93.725, -56.0253
103.000000, 93.674, -56.6560
104.400002, 93.594, -57.3161
106.000000, 93.488, -58.0138
107.500000, 93.384, -58.5193
109.000000, 93.307, -58.8493
110.599998, 93.249, -59.1990
112.000000, 93.201, -59.4231
113.800003, 93.166, -59.5578
115.000000, 93.152, -59.8530
117.199997, 93.055, -60.6353
118.000000, 93.007, -60.8883
120.599998, 92.864, -61.8373
122.000000, 92.790, -62.4573
124.099998, 92.690, -63.2757
125.000000, 92.654, -63.6018
126.500000, 92.592, -64.0316
128.000000, 92.534, -64.3312
131.500000, 92.420, -65.2314
132.000000, 92.395, -65.4011
134.000000, 92.291, -65.9605
136.000000, 92.218, -66.3661
138.000000, 92.150, -66.9392
140.000000, 92.063, -67.5177
143.000000, 91.943, -68.2486
145.000000, 91.921, -68.6550
147.500000, 91.880, -68.8713
150.000000, 91.819, -68.9206
152.500000, 91.698, -69.4091
155.000000, 91.572, -70.1637
157.500000, 91.514, -71.0627
160.000000, 91.485, -71.8290
162.500000, 91.423, -72.7751
165.000000, 91.196, -73.5669
167.500000, 91.024, -73.1914
170.000000, 90.989, -73.5987
172.500000, 90.862, -74.0576
175.000000, 90.895, -73.6279
177.500000, 91.080, -75.3795
180.000000, 90.938, -78.3682
182.500000, 90.582, -79.1706
185.000000, 90.305, -79.1549
187.500000, 90.186, -79.0961
190.000000, 90.222, -79.6516
192.500000, 90.337, -79.6985
195.000000, 90.441, -79.5162
197.500000, 90.417, -79.3621
200.000000, 90.309, -79.3242
203.000000, 90.174, -79.7913
206.000000, 90.067, -80.5678
209.000000, 89.967, -81.0363
212.000000, 89.897, -81.4421
214.000000, 89.857, -81.9370
218.000000, 89.754, -82.7025
220.000000, 89.695, -82.9042
224.000000, 89.530, -83.5959
227.000000, 89.432, -84.1549
230.000000, 89.367, -84.4399
233.000000, 89.302, -84.5580
236.000000, 89.306, -84.8256
240.000000, 89.333, -85.3016
243.000000, 89.227, -85.6913
247.000000, 89.027, -86.3977
250.000000, 88.965, -86.9289
254.000000, 88.972, -88.0618
258.000000, 88.901, -89.0535
262.000000, 88.762, -88.9950
265.000000, 88.708, -89.1564
269.000000, 88.655, -89.5126
272.000000, 88.623, -89.6713
276.000000, 88.561, -90.0305
280.000000, 88.475, -90.4724
285.000000, 88.453, -91.2837
290.000000, 88.425, -92.0045
295.000000, 88.322, -92.4973
300.000000, 88.240, -93.7145
304.000000, 88.210, -93.9334
307.000000, 88.212, -94.0028
311.000000, 88.195, -94.7105
315.000000, 88.164, -95.4381
320.000000, 88.092, -96.1601
325.000000, 88.013, -96.4010
330.000000, 87.957, -96.5958
335.000000, 87.905, -97.0226
340.000000, 87.856, -97.5627
345.000000, 87.817, -98.1948
350.000000, 87.767, -98.6772
355.000000, 87.718, -99.1482
360.000000, 87.680, -99.7216
365.000000, 87.614, -100.3503
370.000000, 87.558, -100.6885
375.000000, 87.560, -100.9471
382.000000, 87.552, -101.4341
387.000000, 87.489, -101.7711
395.000000, 87.390, -103.0894
400.000000, 87.397, -104.0244
406.000000, 87.437, -104.2188
412.000000, 87.410, -105.1053
418.000000, 87.326, -106.1401
425.000000, 87.291, -106.4304
431.000000, 87.279, -106.7634
437.000000, 87.241, -107.0466
444.000000, 87.171, -107.2827
450.000000, 87.130, -107.8998
455.000000, 87.168, -108.7174
462.000000, 87.279, -109.5623
468.000000, 87.269, -110.0193
475.000000, 87.228, -110.9778
482.000000, 87.212, -111.7319
487.000000, 87.185, -112.1472
494.000000, 87.178, -112.6222
500.000000, 87.192, -113.1055
508.000000, 87.187, -113.8776
515.000000, 87.177, -114.5091
522.000000, 87.182, -115.0792
530.000000, 87.191, -115.7789
538.000000, 87.204, -116.5231
545.000000, 87.212, -117.0979
552.000000, 87.213, -117.6069
560.000000, 87.209, -118.2362
570.000000, 87.225, -119.1831
580.000000, 87.249, -119.8981
590.000000, 87.292, -120.6510
600.000000, 87.331, -121.5959
608.000000, 87.359, -122.4944
615.000000, 87.367, -122.9693
622.000000, 87.409, -123.4853
630.000000, 87.440, -124.3138
640.000000, 87.428, -125.0043
650.000000, 87.450, -125.6811
660.000000, 87.477, -126.4915
670.000000, 87.503, -127.3921
680.000000, 87.540, -128.1426
690.000000, 87.573, -128.8088
700.000000, 87.611, -129.5047
710.000000, 87.661, -130.2229
720.000000, 87.699, -130.9992
730.000000, 87.732, -131.7982
740.000000, 87.775, -132.6395
750.000000, 87.832, -133.4897
762.000000, 87.886, -134.3424
775.000000, 87.909, -135.0468
788.000000, 87.941, -135.8934
800.000000, 87.971, -136.7085
812.000000, 88.011, -137.3786
825.000000, 88.066, -138.1708
838.000000, 88.125, -139.0178
850.000000, 88.182, -139.7711
862.000000, 88.236, -140.4780
875.000000, 88.289, -141.2474
885.000000, 88.331, -141.7948
900.000000, 88.400, -142.5878
912.000000, 88.463, -143.2181
925.000000, 88.533, -143.9021
938.000000, 88.604, -144.6023
950.000000, 88.667, -145.2046
962.000000, 88.732, -145.7959
975.000000, 88.806, -146.4465
988.000000, 88.887, -147.1523
1000.000000, 88.965, -147.7892
1015.000000, 89.060, -148.5580
1030.000000, 89.152, -149.3597
1044.000000, 89.239, -150.1267
1060.000000, 89.342, -150.9780
1075.000000, 89.442, -151.7984
1090.000000, 89.549, -152.6585
1106.000000, 89.669, -153.5821
1120.000000, 89.776, -154.3870
1138.000000, 89.915, -155.4211
1150.000000, 90.009, -156.1085
1172.000000, 90.172, -157.3730
1180.000000, 90.231, -157.8472
1206.000000, 90.429, -159.4044
1220.000000, 90.539, -160.2378
1241.000000, 90.694, -161.4611
1250.000000, 90.756, -161.9659
1265.000000, 90.859, -162.8081
1280.000000, 90.962, -163.6611
1315.000000, 91.198, -165.5988
1320.000000, 91.231, -165.8695
1340.000000, 91.354, -166.9648
1360.000000, 91.457, -168.0113
1380.000000, 91.557, -169.0372
1400.000000, 91.672, -170.0519
1430.000000, 91.852, -171.5392
1450.000000, 91.973, -172.5213
1475.000000, 92.119, -173.6707
1500.000000, 92.269, -174.8019
1525.000000, 92.421, -175.9769
1550.000000, 92.564, -177.0684
1575.000000, 92.705, -178.1542
1600.000000, 92.852, -179.2466
1625.000000, 93.008, 179.6695
1650.000000, 93.164, 178.5814
1675.000000, 93.319, 177.4802
1700.000000, 93.473, 176.3887
1725.000000, 93.631, 175.2551
1750.000000, 93.798, 174.1057
1775.000000, 93.969, 172.8882
1800.000000, 94.138, 171.6448
1825.000000, 94.297, 170.3887
1850.000000, 94.453, 169.0792
1875.000000, 94.616, 167.6862
1900.000000, 94.782, 166.2154
1925.000000, 94.938, 164.6918
1950.000000, 95.078, 163.1335
1975.000000, 95.209, 161.4864
2000.000000, 95.337, 159.7577
2030.000000, 95.478, 157.5975
2060.000000, 95.595, 155.3710
2090.000000, 95.679, 153.1234
2120.000000, 95.730, 150.8453
2140.000000, 95.752, 149.3026
2180.000000, 95.770, 146.2615
2200.000000, 95.759, 144.7690
2240.000000, 95.690, 141.9165
2270.000000, 95.600, 139.9233
2300.000000, 95.488, 138.0593
2330.000000, 95.365, 136.3209
2360.000000, 95.233, 134.7354
2400.000000, 95.035, 132.8560
2430.000000, 94.873, 131.6432
2470.000000, 94.656, 130.2492
2500.000000, 94.492, 129.3544
2540.000000, 94.274, 128.3878
2580.000000, 94.063, 127.6138
2620.000000, 93.863, 127.0194
2650.000000, 93.719, 126.6736
2690.000000, 93.540, 126.3508
2720.000000, 93.413, 126.1639
2760.000000, 93.252, 126.0121
2800.000000, 93.103, 125.9438
2850.000000, 92.934, 125.9604
2900.000000, 92.790, 126.0723
2950.000000, 92.666, 126.2494
3000.000000, 92.552, 126.4998
3040.000000, 92.472, 126.7304
3070.000000, 92.421, 126.9033
3110.000000, 92.363, 127.1655
3150.000000, 92.311, 127.4582
3200.000000, 92.259, 127.8253
3250.000000, 92.223, 128.1810
3300.000000, 92.197, 128.5769
3350.000000, 92.184, 128.9471
3400.000000, 92.182, 129.3347
3450.000000, 92.194, 129.7121
3500.000000, 92.224, 130.0583
3550.000000, 92.267, 130.4055
3600.000000, 92.319, 130.6918
3650.000000, 92.380, 130.9598
3700.000000, 92.446, 131.2048
3750.000000, 92.523, 131.4067
3820.000000, 92.657, 131.5878
3870.000000, 92.759, 131.6297
3950.000000, 92.924, 131.5598
4000.000000, 93.041, 131.4030
4060.000000, 93.194, 131.0591
4120.000000, 93.359, 130.5535
4180.000000, 93.531, 129.8334
4250.000000, 93.733, 128.6526
4310.000000, 93.904, 127.3326
4370.000000, 94.061, 125.6451
4440.000000, 94.212, 123.2007
4500.000000, 94.298, 120.5735
4550.000000, 94.321, 118.0353
4620.000000, 94.240, 113.9024
4680.000000, 94.021, 110.0099
4750.000000, 93.538, 105.5089
4820.000000, 92.786, 101.9592
4870.000000, 92.118, 100.6184
4940.000000, 91.148, 100.9719
5000.000000, 90.444, 103.1141
5080.000000, 89.839, 107.1895
5150.000000, 89.593, 110.5280
5220.000000, 89.494, 113.1603
5300.000000, 89.439, 115.3591
5380.000000, 89.388, 117.1307
5450.000000, 89.337, 118.5465
5520.000000, 89.287, 120.0007
5600.000000, 89.245, 121.8072
5700.000000, 89.240, 124.2659
5800.000000, 89.306, 126.8781
5900.000000, 89.464, 129.5182
6000.000000, 89.720, 131.9173
6080.000000, 89.991, 133.6028
6150.000000, 90.275, 134.7815
6220.000000, 90.591, 135.5825
6300.000000, 90.963, 136.0964
6400.000000, 91.406, 136.1115
6500.000000, 91.806, 135.6343
6600.000000, 92.164, 134.9096
6700.000000, 92.487, 134.0310
6800.000000, 92.790, 133.1444
6900.000000, 93.114, 132.2697
7000.000000, 93.479, 131.2581
7100.000000, 93.863, 129.8980
7200.000000, 94.225, 128.0128
7300.000000, 94.519, 125.7127
7400.000000, 94.722, 123.2736
7500.000000, 94.865, 120.9681
7620.000000, 94.979, 118.0401
7750.000000, 94.963, 115.1209
7880.000000, 94.803, 113.3376
8000.000000, 94.691, 112.2581
8120.000000, 94.602, 110.7344
8250.000000, 94.371, 108.6732
8380.000000, 93.972, 107.2700
8500.000000, 93.529, 106.9816
8620.000000, 93.086, 107.7494
8750.000000, 92.666, 109.4503
8850.000000, 92.405, 111.2114
9000.000000, 92.139, 114.1327
9120.000000, 92.044, 116.3265
9250.000000, 91.990, 117.8946
9380.000000, 91.866, 119.2107
9500.000000, 91.764, 120.5675
9620.000000, 91.687, 121.6002
9750.000000, 91.568, 122.2322
9880.000000, 91.372, 122.5623
10000.000000, 91.115, 122.8586
10150.000000, 90.676, 123.3466
10300.000000, 90.101, 124.2686
10440.000000, 89.458, 125.8470
10600.000000, 88.640, 128.8276
10750.000000, 87.875, 133.0106
10900.000000, 87.205, 138.1175
11060.000000, 86.588, 143.7691
11200.000000, 86.046, 148.9080
11380.000000, 85.361, 156.4598
11500.000000, 84.964, 162.1017
11720.000000, 84.397, 173.2316
11800.000000, 84.245, 177.4879
12060.000000, 83.977, -168.3573
12200.000000, 83.980, -160.7010
12410.000000, 84.178, -149.7428
12500.000000, 84.328, -145.3837
12650.000000, 84.643, -138.6863
12800.000000, 85.010, -132.8789
13150.000000, 85.812, -123.0315
13200.000000, 85.895, -121.9859
13400.000000, 86.099, -118.4282
13600.000000, 86.078, -115.1136
13800.000000, 85.856, -111.2549
14000.000000, 85.512, -106.1870
14300.000000, 84.976, -95.9613
14500.000000, 84.723, -87.5520
14750.000000, 84.627, -75.8994
15000.000000, 84.835, -63.6539
15250.000000, 85.376, -51.0472
15500.000000, 86.495, -37.8081
15750.000000, 88.444, -26.6400
16000.000000, 90.832, -21.8610
16250.000000, 93.201, -23.6977
16500.000000, 95.217, -32.1347
16750.000000, 96.410, -46.2831
17000.000000, 96.533, -62.7713
17250.000000, 95.831, -78.9374
17500.000000, 94.469, -95.0578
17750.000000, 92.175, -110.2646
18000.000000, 88.826, -120.6968
18250.000000, 84.807, -123.1064
18500.000000, 80.762, -117.5829
18750.000000, 77.244, -106.2662
19000.000000, 74.520, -91.3228
19250.000000, 72.476, -74.4975
19500.000000, 70.769, -58.3890
19750.000000, 68.975, -45.2493
20000.000000, 66.772, -32.0726
20300.000000, 63.896, -13.2050
20600.000000, 61.158, 6.7771
20900.000000, 58.549, 27.1249
21200.000000, 55.999, 47.5117
21400.000000, 54.294, 61.0375
21800.000000, 50.620, 89.0758
22000.000000, 48.278, 104.0286
22400.000000, 41.733, 133.3856
22700.000000, 36.321, 153.8564
23000.000000, 32.855, 170.5251
23300.000000, 31.869, -71.6011
23600.000000, 31.717, -0.0630
24000.000000, 31.540, 178.7151
