* Measurement data measured by REW V5.20.13
* Source: Headset (DS by VECLAN.COM), MICROPHONE (Master Volume), L, volume: 0.720. Timing signal peak level -17.0 dBFS, measurement signal peak level -15.9 dBFS
* Format: 4M Log Swept Sine, 1 sweep at -12.0 dBFS using an acoustic timing reference
* Dated: Dec 30, 2023 10:31:12 PM
* REW Settings:
*  C-weighting compensation: Off
*  Target level: 75.0 dB
* Note: ; Delay -0.0688 ms (-24 mm, -0.93 in) using estimated IR delay relative to Acoustic reference played from  L with no timing offset Clock adjustment: -0.2 ppm
* Measurement: AFUL MagicOne S2 Black L
* Smoothing: 1/24 octave
* Frequency Step: 1/48 octave
* Start Frequency: 1.000 Hz
*
* Freq(Hz) SPL(dB) Phase(degrees)
1.000000 76.363 96.4446
1.015000 76.679 94.4784
1.030000 76.989 92.6396
1.044000 77.273 91.0471
1.060000 77.588 89.3839
1.075000 77.874 87.9868
1.090000 78.149 86.7568
1.106000 78.431 85.6459
1.120000 78.676 84.8777
1.138000 78.990 84.1584
1.150000 79.198 83.8341
1.172000 79.578 83.5305
1.180000 79.715 83.5054
1.206000 80.157 83.6980
1.220000 80.393 83.9539
1.241000 80.741 84.5013
1.250000 80.889 84.7864
1.265000 81.133 85.3161
1.280000 81.373 85.8996
1.315000 81.918 87.3792
1.320000 81.994 87.5952
1.340000 82.293 88.4468
1.360000 82.584 89.2494
1.380000 82.865 89.9645
1.400000 83.136 90.5534
1.430000 83.523 91.1158
1.450000 83.766 91.2206
1.475000 84.053 90.9998
1.500000 84.320 90.5316
1.525000 84.567 89.8811
1.550000 84.797 89.0764
1.575000 85.011 88.1454
1.600000 85.210 87.1161
1.625000 85.397 86.0168
1.650000 85.572 84.8752
1.675000 85.738 83.7195
1.700000 85.896 82.5778
1.725000 86.047 81.4779
1.750000 86.193 80.4480
1.775000 86.336 79.5160
1.800000 86.478 78.7101
1.825000 86.619 78.0582
1.850000 86.758 77.5652
1.875000 86.886 77.1823
1.900000 87.006 76.8940
1.925000 87.118 76.6867
1.950000 87.222 76.5468
1.975000 87.320 76.4604
2.000000 87.414 76.4142
2.030000 87.521 76.3925
2.060000 87.624 76.3853
2.090000 87.725 76.3690
2.120000 87.826 76.3201
2.140000 87.894 76.2577
2.180000 88.034 76.0302
2.200000 88.107 75.8514
2.240000 88.256 75.4162
2.270000 88.366 75.0480
2.300000 88.475 74.6500
2.330000 88.584 74.2275
2.360000 88.691 73.7859
2.400000 88.832 73.1768
2.430000 88.936 72.7117
2.470000 89.072 72.0908
2.500000 89.172 71.6315
2.540000 89.302 71.0378
2.580000 89.428 70.4722
2.620000 89.550 69.9008
2.650000 89.640 69.4659
2.690000 89.756 68.8828
2.720000 89.842 68.4467
2.760000 89.954 67.8722
2.800000 90.062 67.3116
2.850000 90.195 66.6405
2.900000 90.325 66.0143
2.950000 90.451 65.4480
3.000000 90.573 64.9593
3.040000 90.667 64.6123
3.070000 90.737 64.3695
3.110000 90.827 64.0590
3.150000 90.915 63.7518
3.200000 91.023 63.3537
3.250000 91.128 62.9168
3.300000 91.232 62.4165
3.350000 91.333 61.8381
3.400000 91.431 61.1994
3.450000 91.526 60.5258
3.500000 91.618 59.8425
3.550000 91.709 59.1746
3.600000 91.797 58.5472
3.650000 91.883 57.9858
3.700000 91.967 57.5092
3.750000 92.049 57.1041
3.820000 92.159 56.6164
3.870000 92.235 56.2959
3.950000 92.354 55.7726
4.000000 92.425 55.4059
4.060000 92.509 54.8947
4.120000 92.591 54.3199
4.180000 92.670 53.7087
4.250000 92.758 52.9842
4.310000 92.832 52.3827
4.370000 92.904 51.8265
4.440000 92.985 51.2607
4.500000 93.052 50.8317
4.550000 93.106 50.5006
4.620000 93.179 50.0586
4.680000 93.240 49.6820
4.750000 93.310 49.2227
4.820000 93.379 48.7303
4.870000 93.428 48.3684
4.940000 93.494 47.8568
5.000000 93.549 47.4209
5.080000 93.620 46.8562
5.150000 93.680 46.3889
5.220000 93.738 45.9430
5.300000 93.802 45.4525
5.380000 93.863 44.9771
5.450000 93.915 44.5693
5.520000 93.966 44.1658
5.600000 94.021 43.7134
5.700000 94.087 43.1624
5.800000 94.151 42.6271
5.900000 94.213 42.1073
6.000000 94.274 41.6041
6.080000 94.321 41.2126
6.150000 94.361 40.8772
6.220000 94.401 40.5477
6.300000 94.447 40.1809
6.400000 94.502 39.7377
6.500000 94.555 39.3024
6.600000 94.607 38.8656
6.700000 94.657 38.4223
6.800000 94.704 37.9791
6.900000 94.750 37.5445
7.000000 94.794 37.1266
7.100000 94.836 36.7245
7.200000 94.875 36.3332
7.300000 94.914 35.9485
7.400000 94.951 35.5673
7.500000 94.987 35.1917
7.620000 95.029 34.7510
7.750000 95.072 34.2894
7.880000 95.112 33.8443
8.000000 95.149 33.4445
8.120000 95.183 33.0521
8.250000 95.220 32.6360
8.380000 95.254 32.2309
8.500000 95.285 31.8680
8.620000 95.315 31.5155
8.750000 95.346 31.1432
8.850000 95.370 30.8631
9.000000 95.406 30.4550
9.120000 95.434 30.1331
9.250000 95.466 29.7852
9.380000 95.498 29.4402
9.500000 95.526 29.1216
9.620000 95.550 28.8004
9.750000 95.574 28.4512
9.880000 95.592 28.1035
10.000000 95.599 27.7816
10.150000 95.598 27.3815
10.300000 95.591 27.0020
10.440000 95.574 26.6676
10.600000 95.552 26.3058
10.750000 95.534 25.9896
10.900000 95.515 25.6917
11.060000 95.499 25.3799
11.200000 95.489 25.1136
11.380000 95.478 24.7770
11.500000 95.472 24.5565
11.720000 95.465 24.1544
11.800000 95.464 24.0073
12.060000 95.465 23.5243
12.200000 95.468 23.2520
12.410000 95.474 22.8322
12.500000 95.476 22.6521
12.650000 95.478 22.3494
12.800000 95.480 22.0496
13.150000 95.478 21.3762
13.200000 95.478 21.2841
13.400000 95.478 20.9260
13.600000 95.478 20.5861
13.800000 95.480 20.2664
14.000000 95.484 19.9581
14.300000 95.490 19.5129
14.500000 95.495 19.2227
14.750000 95.502 18.8644
15.000000 95.511 18.5099
15.250000 95.520 18.1569
15.500000 95.530 17.8153
15.750000 95.540 17.4900
16.000000 95.548 17.1874
16.250000 95.556 16.9011
16.500000 95.565 16.6267
16.750000 95.576 16.3577
17.000000 95.588 16.0868
17.250000 95.601 15.8122
17.500000 95.614 15.5320
17.750000 95.624 15.2490
18.000000 95.630 14.9673
18.250000 95.634 14.6909
18.500000 95.637 14.4314
18.750000 95.639 14.1909
19.000000 95.643 13.9713
19.250000 95.650 13.7631
19.500000 95.660 13.5573
19.750000 95.672 13.3472
20.000000 95.686 13.1246
20.299999 95.702 12.8412
20.600000 95.716 12.5447
20.900000 95.727 12.2450
21.200001 95.735 11.9547
21.400000 95.739 11.7704
21.799999 95.747 11.4226
22.000000 95.752 11.2554
22.400000 95.762 10.9218
22.700001 95.770 10.6666
23.000000 95.777 10.4088
23.299999 95.782 10.1561
23.600000 95.786 9.9159
24.000000 95.792 9.6210
24.299999 95.798 9.4153
24.700001 95.808 9.1483
25.000000 95.818 8.9440
25.400000 95.830 8.6625
25.799999 95.840 8.3786
26.200001 95.848 8.1039
26.500000 95.853 7.9071
26.900000 95.859 7.6558
27.200001 95.863 7.4729
27.600000 95.867 7.2340
28.000000 95.870 6.9984
28.500000 95.874 6.7035
29.000000 95.876 6.4039
29.500000 95.875 6.1087
30.000000 95.868 5.8458
30.400000 95.861 5.6736
30.700001 95.859 5.5630
31.100000 95.862 5.4169
31.500000 95.872 5.2437
32.000000 95.886 4.9640
32.500000 95.897 4.6335
33.000000 95.899 4.3006
33.500000 95.898 3.9901
34.000000 95.898 3.6919
34.500000 95.899 3.3932
35.000000 95.899 3.1040
35.500000 95.897 2.8442
36.000000 95.897 2.6187
36.500000 95.900 2.4114
37.000000 95.903 2.1964
37.500000 95.905 1.9640
38.200001 95.902 1.6390
38.700001 95.896 1.4309
39.500000 95.887 1.1373
40.000000 95.885 0.9573
40.599998 95.883 0.7247
41.200001 95.879 0.4733
41.799999 95.872 0.2197
42.500000 95.865 -0.0618
43.099998 95.860 -0.2954
43.700001 95.856 -0.5290
44.400002 95.853 -0.7985
45.000000 95.849 -1.0197
45.500000 95.846 -1.1940
46.200001 95.843 -1.4287
46.799999 95.842 -1.6331
47.500000 95.839 -1.8790
48.200001 95.833 -2.1158
48.700001 95.828 -2.2739
49.400002 95.822 -2.4908
50.000000 95.818 -2.6822
50.799999 95.811 -2.9426
51.500000 95.804 -3.1668
52.200001 95.797 -3.3840
53.000000 95.790 -3.6256
53.799999 95.782 -3.8586
54.500000 95.773 -4.0544
55.200001 95.765 -4.2490
56.000000 95.754 -4.4746
57.000000 95.739 -4.7567
58.000000 95.716 -5.0251
59.000000 95.692 -5.2185
60.000000 95.684 -5.3882
60.799999 95.687 -5.6209
61.500000 95.682 -5.8674
62.200001 95.670 -6.0927
63.000000 95.654 -6.3112
64.000000 95.635 -6.5570
65.000000 95.619 -6.7941
66.000000 95.606 -7.0353
67.000000 95.595 -7.2822
68.000000 95.585 -7.5260
69.000000 95.578 -7.8005
70.000000 95.561 -8.1278
71.000000 95.526 -8.3616
72.000000 95.500 -8.4599
73.000000 95.488 -8.5696
74.000000 95.472 -8.7235
75.000000 95.451 -8.8816
76.199997 95.425 -9.0693
77.500000 95.401 -9.3049
78.800003 95.375 -9.5770
80.000000 95.350 -9.8082
81.199997 95.327 -10.0171
82.500000 95.300 -10.2300
83.800003 95.274 -10.4243
85.000000 95.251 -10.6007
86.199997 95.229 -10.7865
87.500000 95.206 -10.9919
88.500000 95.189 -11.1482
90.000000 95.160 -11.3689
91.199997 95.137 -11.5195
92.500000 95.114 -11.6824
93.800003 95.091 -11.8597
95.000000 95.066 -12.0232
96.199997 95.040 -12.1754
97.500000 95.013 -12.3303
98.800003 94.987 -12.4769
100.000000 94.963 -12.6160
101.500000 94.933 -12.8074
103.000000 94.902 -12.9944
104.400002 94.872 -13.1520
106.000000 94.836 -13.3206
107.500000 94.804 -13.4720
109.000000 94.773 -13.6409
110.599998 94.737 -13.8079
112.000000 94.709 -13.9399
113.800003 94.672 -14.0969
115.000000 94.646 -14.1845
117.199997 94.602 -14.3329
118.000000 94.586 -14.4020
120.599998 94.530 -14.6315
122.000000 94.504 -14.7765
124.099998 94.460 -14.9719
125.000000 94.442 -15.0156
126.500000 94.418 -15.0710
128.000000 94.399 -15.1678
131.500000 94.336 -15.4933
132.000000 94.327 -15.5362
134.000000 94.289 -15.6819
136.000000 94.253 -15.7588
138.000000 94.219 -15.8265
140.000000 94.179 -15.9305
143.000000 94.127 -16.0943
145.000000 94.097 -16.2103
147.500000 94.059 -16.3278
150.000000 94.020 -16.4426
152.500000 93.977 -16.5539
155.000000 93.936 -16.6668
157.500000 93.893 -16.7863
160.000000 93.848 -16.8970
162.500000 93.806 -16.9998
165.000000 93.763 -17.0927
167.500000 93.718 -17.1874
170.000000 93.668 -17.2856
172.500000 93.618 -17.3817
175.000000 93.570 -17.4798
177.500000 93.521 -17.5664
180.000000 93.471 -17.6456
182.500000 93.419 -17.7188
185.000000 93.364 -17.7877
187.500000 93.310 -17.8579
190.000000 93.255 -17.9247
192.500000 93.201 -17.9811
195.000000 93.148 -18.0231
197.500000 93.094 -18.0533
200.000000 93.040 -18.0769
203.000000 92.976 -18.1004
206.000000 92.909 -18.1251
209.000000 92.839 -18.1389
212.000000 92.771 -18.1078
214.000000 92.727 -18.0620
218.000000 92.637 -17.9566
220.000000 92.593 -17.8996
224.000000 92.507 -17.7697
227.000000 92.443 -17.6570
230.000000 92.380 -17.5227
233.000000 92.320 -17.3650
236.000000 92.262 -17.1997
240.000000 92.186 -16.9766
243.000000 92.132 -16.7916
247.000000 92.066 -16.5246
250.000000 92.018 -16.3197
254.000000 91.957 -16.0312
258.000000 91.897 -15.7305
262.000000 91.843 -15.4376
265.000000 91.805 -15.2207
269.000000 91.758 -14.9308
272.000000 91.726 -14.7139
276.000000 91.686 -14.4244
280.000000 91.649 -14.1390
285.000000 91.606 -13.7987
290.000000 91.565 -13.4670
295.000000 91.528 -13.1441
300.000000 91.489 -12.8075
304.000000 91.457 -12.5341
307.000000 91.435 -12.3534
311.000000 91.410 -12.1245
315.000000 91.387 -11.8843
320.000000 91.359 -11.5826
325.000000 91.327 -11.2956
330.000000 91.296 -11.0093
335.000000 91.268 -10.7238
340.000000 91.240 -10.4310
345.000000 91.212 -10.1302
350.000000 91.183 -9.8402
355.000000 91.156 -9.5505
360.000000 91.128 -9.2533
365.000000 91.103 -8.9673
370.000000 91.080 -8.6934
375.000000 91.057 -8.4305
382.000000 91.025 -8.0698
387.000000 91.001 -7.8120
395.000000 90.962 -7.4158
400.000000 90.938 -7.1840
406.000000 90.909 -6.8804
412.000000 90.881 -6.5695
418.000000 90.852 -6.2657
425.000000 90.818 -5.9089
431.000000 90.789 -5.6089
437.000000 90.760 -5.3241
444.000000 90.729 -4.9922
450.000000 90.703 -4.7024
455.000000 90.680 -4.4604
462.000000 90.650 -4.1219
468.000000 90.623 -3.8248
475.000000 90.593 -3.4806
482.000000 90.563 -3.1404
487.000000 90.542 -2.8912
494.000000 90.513 -2.5377
500.000000 90.491 -2.2403
508.000000 90.461 -1.8412
515.000000 90.434 -1.4805
522.000000 90.407 -1.1171
530.000000 90.378 -0.6971
538.000000 90.349 -0.2719
545.000000 90.326 0.0884
552.000000 90.304 0.4511
560.000000 90.278 0.8916
570.000000 90.246 1.4302
580.000000 90.216 1.9763
590.000000 90.187 2.5401
600.000000 90.159 3.0972
608.000000 90.134 3.5450
615.000000 90.115 3.9542
622.000000 90.097 4.3789
630.000000 90.076 4.8649
640.000000 90.050 5.4562
650.000000 90.025 6.0543
660.000000 90.001 6.6681
670.000000 89.978 7.2766
680.000000 89.958 7.8834
690.000000 89.940 8.5036
700.000000 89.924 9.1297
710.000000 89.912 9.7662
720.000000 89.901 10.4119
730.000000 89.890 11.0541
740.000000 89.882 11.7048
750.000000 89.877 12.3658
762.000000 89.873 13.1647
775.000000 89.870 14.0372
788.000000 89.870 14.9056
800.000000 89.874 15.6976
812.000000 89.881 16.5012
825.000000 89.894 17.3695
838.000000 89.910 18.2236
850.000000 89.927 19.0177
862.000000 89.949 19.8083
875.000000 89.976 20.6456
885.000000 89.998 21.2809
900.000000 90.036 22.2186
912.000000 90.073 22.9645
925.000000 90.114 23.7463
938.000000 90.157 24.5013
950.000000 90.200 25.1822
962.000000 90.245 25.8506
975.000000 90.300 26.5679
988.000000 90.360 27.2656
1000.000000 90.413 27.8876
1015.000000 90.468 28.5940
1030.000000 90.532 29.2457
1044.000000 90.596 29.8437
1060.000000 90.667 30.5206
1075.000000 90.728 31.1303
1090.000000 90.793 31.6994
1106.000000 90.873 32.2736
1120.000000 90.945 32.7581
1138.000000 91.036 33.3484
1150.000000 91.094 33.7359
1172.000000 91.198 34.4389
1180.000000 91.235 34.6932
1206.000000 91.351 35.4981
1220.000000 91.416 35.9139
1241.000000 91.514 36.5417
1250.000000 91.556 36.8200
1265.000000 91.626 37.2846
1280.000000 91.693 37.7523
1315.000000 91.847 38.8554
1320.000000 91.868 39.0125
1340.000000 91.948 39.6516
1360.000000 92.012 40.3176
1380.000000 92.075 40.9973
1400.000000 92.153 41.6858
1430.000000 92.281 42.7409
1450.000000 92.373 43.4513
1475.000000 92.493 44.3481
1500.000000 92.620 45.2446
1525.000000 92.753 46.1335
1550.000000 92.887 47.0164
1575.000000 93.027 47.8927
1600.000000 93.176 48.7511
1625.000000 93.332 49.5798
1650.000000 93.499 50.3813
1675.000000 93.675 51.1315
1700.000000 93.859 51.8162
1725.000000 94.047 52.4391
1750.000000 94.243 52.9860
1775.000000 94.445 53.4582
1800.000000 94.652 53.8518
1825.000000 94.861 54.1489
1850.000000 95.073 54.3491
1875.000000 95.284 54.4559
1900.000000 95.493 54.4595
1925.000000 95.696 54.3603
1950.000000 95.893 54.1595
1975.000000 96.085 53.8643
2000.000000 96.266 53.4697
2030.000000 96.457 52.8686
2060.000000 96.630 52.1849
2090.000000 96.785 51.4439
2120.000000 96.917 50.6553
2140.000000 96.992 50.1163
2180.000000 97.110 49.0507
2200.000000 97.153 48.5384
2240.000000 97.211 47.5944
2270.000000 97.236 46.9677
2300.000000 97.246 46.4164
2330.000000 97.247 45.9460
2360.000000 97.242 45.5569
2400.000000 97.230 45.1624
2430.000000 97.218 44.9506
2470.000000 97.203 44.7547
2500.000000 97.190 44.6694
2540.000000 97.173 44.6131
2580.000000 97.158 44.6265
2620.000000 97.148 44.7075
2650.000000 97.144 44.8080
2690.000000 97.146 45.0002
2720.000000 97.152 45.1832
2760.000000 97.167 45.4574
2800.000000 97.196 45.7468
2850.000000 97.251 46.0919
2900.000000 97.325 46.3721
2950.000000 97.410 46.5570
3000.000000 97.500 46.6341
3040.000000 97.572 46.5847
3070.000000 97.623 46.4995
3110.000000 97.689 46.3497
3150.000000 97.749 46.1625
3200.000000 97.814 45.8754
3250.000000 97.870 45.5385
3300.000000 97.915 45.1699
3350.000000 97.950 44.7703
3400.000000 97.978 44.3390
3450.000000 98.000 43.8785
3500.000000 98.014 43.3837
3550.000000 98.015 42.8628
3600.000000 97.999 42.3442
3650.000000 97.967 41.8484
3700.000000 97.919 41.3874
3750.000000 97.857 40.9862
3820.000000 97.747 40.5554
3870.000000 97.655 40.3436
3950.000000 97.488 40.1909
4000.000000 97.376 40.2115
4060.000000 97.241 40.3459
4120.000000 97.105 40.6068
4180.000000 96.972 40.9913
4250.000000 96.823 41.5766
4310.000000 96.701 42.1695
4370.000000 96.583 42.8316
4440.000000 96.451 43.6817
4500.000000 96.346 44.4690
4550.000000 96.265 45.1674
4620.000000 96.163 46.2125
4680.000000 96.089 47.1641
4750.000000 96.020 48.3247
4820.000000 95.971 49.5054
4870.000000 95.947 50.3464
4940.000000 95.929 51.4957
5000.000000 95.927 52.4547
5080.000000 95.949 53.7002
5150.000000 95.986 54.7167
5220.000000 96.042 55.6384
5300.000000 96.128 56.5455
5380.000000 96.230 57.2597
5450.000000 96.327 57.7120
5520.000000 96.424 57.9834
5600.000000 96.526 58.0762
5700.000000 96.629 57.9490
5800.000000 96.696 57.6368
5900.000000 96.724 57.2048
6000.000000 96.713 56.7156
6080.000000 96.681 56.3439
6150.000000 96.641 56.0594
6220.000000 96.591 55.8183
6300.000000 96.524 55.5982
6400.000000 96.427 55.4133
6500.000000 96.322 55.3185
6600.000000 96.217 55.3102
6700.000000 96.117 55.3776
6800.000000 96.031 55.4772
6900.000000 95.976 55.5688
7000.000000 95.952 55.6200
7100.000000 95.941 55.6459
7200.000000 95.954 55.7383
7300.000000 96.064 55.6925
7400.000000 96.258 54.5110
7500.000000 96.343 51.9567
7620.000000 96.230 48.3318
7750.000000 95.897 44.3265
7880.000000 95.255 40.5288
8000.000000 94.383 37.7534
8120.000000 93.279 36.2445
8250.000000 91.824 36.9375
8380.000000 90.175 42.8771
8500.000000 89.456 54.7020
8620.000000 90.125 61.5459
8750.000000 90.072 59.7515
8850.000000 89.395 60.0968
9000.000000 88.403 65.0745
9120.000000 87.894 70.5932
9250.000000 87.608 76.8622
9380.000000 87.552 82.9050
9500.000000 87.673 87.9677
9620.000000 87.929 92.2850
9750.000000 88.316 95.9054
9880.000000 88.760 98.2553
10000.000000 89.155 99.2189
10150.000000 89.544 98.9201
10300.000000 89.736 97.4402
10440.000000 89.709 95.6723
10600.000000 89.456 93.9758
10750.000000 89.066 93.1783
10900.000000 88.604 93.2798
11060.000000 88.099 94.2344
11200.000000 87.676 95.5718
11380.000000 87.159 97.7521
11500.000000 86.823 99.5364
11720.000000 86.283 103.7766
11800.000000 86.142 105.5291
12060.000000 85.919 110.8775
12200.000000 85.886 113.2339
12410.000000 85.868 116.0562
12500.000000 85.862 117.0399
12650.000000 85.848 118.4333
12800.000000 85.824 119.5750
13150.000000 85.695 121.5691
13200.000000 85.668 121.7989
13400.000000 85.541 122.6285
13600.000000 85.396 123.3625
13800.000000 85.251 124.0196
14000.000000 85.113 124.6080
14300.000000 84.923 125.4600
14500.000000 84.835 126.0163
14750.000000 84.814 126.5794
15000.000000 84.935 126.7120
15250.000000 85.258 125.8234
15500.000000 85.831 122.8977
15750.000000 86.535 116.4968
16000.000000 87.024 105.5037
16250.000000 86.901 90.6509
16500.000000 85.966 74.8400
16750.000000 84.304 60.8598
17000.000000 82.121 49.7398
17250.000000 79.568 41.6591
17500.000000 76.734 36.8869
17750.000000 73.712 35.4860
18000.000000 70.600 37.0331
18250.000000 67.448 40.9090
18500.000000 64.180 47.0350
18750.000000 60.568 58.1028
19000.000000 56.336 84.6446
19250.000000 52.993 137.0652
19500.000000 55.414 -168.4356
19750.000000 59.449 -139.5761
20000.000000 62.800 -128.8140
20300.000000 66.308 -124.6492
20600.000000 69.483 -126.2115
20900.000000 71.959 -134.9282
21200.000000 73.286 -149.3114
21400.000000 73.518 -159.2839
21800.000000 72.855 -175.3211
22000.000000 72.176 174.5895
22400.000000 70.152 -5.7269
22700.000000 67.044 -100.7485
23000.000000 61.422 32.3623
23300.000000 53.564 99.8174
23600.000000 45.176 -123.1367
24000.000000 40.013 115.8945
