* Measurement data measured by REW V5.31.3
* Source: JM-1 Target Filtered
* Format: 
* Dated: Oct 3, 2024 7:46:37 PM
* REW Settings:
*  C-weighting compensation: Off
*  Target level: 0.0 dB
* Note: Measurement imported from C:\Users\Ralph Ivan Danque\Documents\Graph Tool\data_fossy\JM-1 Target.txt Format: Comma/Tab/Space delimited data 480 values loaded, 20 Hz to 20,049 Hz log spaced  LS Q     Fc   105.0 Hz  Gain   6.60 dB Q  0.710 PK       Fc    2800 Hz  Gain  -1.80 dB  Q  1.000 HS Q     Fc    2500 Hz  Gain  -3.00 dB Q  0.420 PK       Fc   65.00 Hz  Gain  -2.00 dB  Q  0.700 PK       Fc   85.00 Hz  Gain  -0.50 dB  Q  2.000 PK       Fc    1600 Hz  Gain   1.30 dB  Q  2.000 HS Q     Fc    3000 Hz  Gain  -1.00 dB Q   1.00
* Measurement: EQ JM-1 Target
* Smoothing: 1/24 octave
* Frequency Step: 1/48 octave
* Start Frequency: 20.300 Hz
*
* Freq(Hz), SPL(dB)
20.299999, 11.599
20.600000, 11.602
20.900000, 11.606
21.200001, 11.611
21.400000, 11.614
21.799999, 11.618
22.000000, 11.620
22.400000, 11.622
22.700001, 11.622
23.000000, 11.621
23.299999, 11.619
23.600000, 11.616
24.000000, 11.611
24.299999, 11.606
24.700001, 11.599
25.000000, 11.592
25.400000, 11.583
25.799999, 11.572
26.200001, 11.561
26.500000, 11.552
26.900000, 11.539
27.200001, 11.528
27.600000, 11.513
28.000000, 11.497
28.500000, 11.477
29.000000, 11.455
29.500000, 11.433
30.000000, 11.410
30.400000, 11.390
30.700001, 11.376
31.100000, 11.355
31.500000, 11.334
32.000000, 11.308
32.500000, 11.281
33.000000, 11.253
33.500000, 11.226
34.000000, 11.197
34.500000, 11.168
35.000000, 11.139
35.500000, 11.110
36.000000, 11.080
36.500000, 11.050
37.000000, 11.021
37.500000, 10.991
38.200001, 10.949
38.700001, 10.919
39.500000, 10.871
40.000000, 10.841
40.599998, 10.806
41.200001, 10.771
41.799999, 10.736
42.500000, 10.694
43.099998, 10.660
43.700001, 10.626
44.400002, 10.585
45.000000, 10.551
45.500000, 10.523
46.200001, 10.484
46.799999, 10.451
47.500000, 10.412
48.200001, 10.373
48.700001, 10.346
49.400002, 10.309
50.000000, 10.276
50.799999, 10.234
51.500000, 10.197
52.200001, 10.159
53.000000, 10.117
53.799999, 10.076
54.500000, 10.039
55.200001, 10.002
56.000000, 9.961
57.000000, 9.909
58.000000, 9.857
59.000000, 9.805
60.000000, 9.752
60.799999, 9.710
61.500000, 9.674
62.200001, 9.637
63.000000, 9.594
64.000000, 9.540
65.000000, 9.486
66.000000, 9.432
67.000000, 9.377
68.000000, 9.321
69.000000, 9.264
70.000000, 9.207
71.000000, 9.150
72.000000, 9.092
73.000000, 9.034
74.000000, 8.976
75.000000, 8.917
76.199997, 8.848
77.500000, 8.775
78.800003, 8.703
80.000000, 8.639
81.199997, 8.577
82.500000, 8.512
83.800003, 8.452
85.000000, 8.398
86.199997, 8.348
87.500000, 8.296
88.500000, 8.258
90.000000, 8.204
91.199997, 8.162
92.500000, 8.118
93.800003, 8.076
95.000000, 8.037
96.199997, 7.998
97.500000, 7.956
98.800003, 7.914
100.000000, 7.874
101.500000, 7.825
103.000000, 7.775
104.400002, 7.727
106.000000, 7.672
107.500000, 7.620
109.000000, 7.567
110.599998, 7.510
112.000000, 7.460
113.800003, 7.396
115.000000, 7.354
117.199997, 7.275
118.000000, 7.247
120.599998, 7.155
122.000000, 7.107
124.099998, 7.035
125.000000, 7.004
126.500000, 6.955
128.000000, 6.906
131.500000, 6.795
132.000000, 6.779
134.000000, 6.719
136.000000, 6.661
138.000000, 6.604
140.000000, 6.550
143.000000, 6.473
145.000000, 6.423
147.500000, 6.364
150.000000, 6.309
152.500000, 6.256
155.000000, 6.206
157.500000, 6.159
160.000000, 6.115
162.500000, 6.073
165.000000, 6.033
167.500000, 5.995
170.000000, 5.960
172.500000, 5.927
175.000000, 5.896
177.500000, 5.866
180.000000, 5.839
182.500000, 5.813
185.000000, 5.788
187.500000, 5.766
190.000000, 5.745
192.500000, 5.726
195.000000, 5.707
197.500000, 5.691
200.000000, 5.675
203.000000, 5.658
206.000000, 5.643
209.000000, 5.629
212.000000, 5.617
214.000000, 5.610
218.000000, 5.597
220.000000, 5.591
224.000000, 5.583
227.000000, 5.578
230.000000, 5.574
233.000000, 5.571
236.000000, 5.570
240.000000, 5.569
243.000000, 5.569
247.000000, 5.571
250.000000, 5.573
254.000000, 5.576
258.000000, 5.580
262.000000, 5.584
265.000000, 5.588
269.000000, 5.593
272.000000, 5.597
276.000000, 5.603
280.000000, 5.608
285.000000, 5.616
290.000000, 5.624
295.000000, 5.633
300.000000, 5.641
304.000000, 5.648
307.000000, 5.654
311.000000, 5.661
315.000000, 5.668
320.000000, 5.677
325.000000, 5.687
330.000000, 5.696
335.000000, 5.705
340.000000, 5.715
345.000000, 5.725
350.000000, 5.734
355.000000, 5.744
360.000000, 5.753
365.000000, 5.762
370.000000, 5.770
375.000000, 5.779
382.000000, 5.790
387.000000, 5.797
395.000000, 5.808
400.000000, 5.813
406.000000, 5.818
412.000000, 5.824
418.000000, 5.828
425.000000, 5.831
431.000000, 5.834
437.000000, 5.836
444.000000, 5.837
450.000000, 5.838
455.000000, 5.838
462.000000, 5.838
468.000000, 5.838
475.000000, 5.838
482.000000, 5.836
487.000000, 5.836
494.000000, 5.834
500.000000, 5.832
508.000000, 5.829
515.000000, 5.826
522.000000, 5.823
530.000000, 5.819
538.000000, 5.816
545.000000, 5.813
552.000000, 5.810
560.000000, 5.806
570.000000, 5.803
580.000000, 5.800
590.000000, 5.798
600.000000, 5.795
608.000000, 5.793
615.000000, 5.791
622.000000, 5.789
630.000000, 5.786
640.000000, 5.782
650.000000, 5.777
660.000000, 5.771
670.000000, 5.765
680.000000, 5.757
690.000000, 5.749
700.000000, 5.739
710.000000, 5.730
720.000000, 5.721
730.000000, 5.712
740.000000, 5.704
750.000000, 5.696
762.000000, 5.689
775.000000, 5.683
788.000000, 5.680
800.000000, 5.678
812.000000, 5.679
825.000000, 5.683
838.000000, 5.691
850.000000, 5.700
862.000000, 5.710
875.000000, 5.723
885.000000, 5.735
900.000000, 5.754
912.000000, 5.770
925.000000, 5.790
938.000000, 5.813
950.000000, 5.836
962.000000, 5.862
975.000000, 5.894
988.000000, 5.930
1000.000000, 5.968
1015.000000, 6.020
1030.000000, 6.079
1044.000000, 6.139
1060.000000, 6.212
1075.000000, 6.283
1090.000000, 6.356
1106.000000, 6.432
1120.000000, 6.497
1138.000000, 6.580
1150.000000, 6.634
1172.000000, 6.729
1180.000000, 6.763
1206.000000, 6.874
1220.000000, 6.935
1241.000000, 7.030
1250.000000, 7.072
1265.000000, 7.144
1280.000000, 7.218
1315.000000, 7.400
1320.000000, 7.426
1340.000000, 7.534
1360.000000, 7.643
1380.000000, 7.754
1400.000000, 7.864
1430.000000, 8.025
1450.000000, 8.130
1475.000000, 8.256
1500.000000, 8.376
1525.000000, 8.488
1550.000000, 8.592
1575.000000, 8.686
1600.000000, 8.771
1625.000000, 8.846
1650.000000, 8.912
1675.000000, 8.970
1700.000000, 9.023
1725.000000, 9.073
1750.000000, 9.120
1775.000000, 9.168
1800.000000, 9.217
1825.000000, 9.269
1850.000000, 9.324
1875.000000, 9.384
1900.000000, 9.448
1925.000000, 9.519
1950.000000, 9.595
1975.000000, 9.679
2000.000000, 9.769
2030.000000, 9.887
2060.000000, 10.015
2090.000000, 10.153
2120.000000, 10.298
2140.000000, 10.398
2180.000000, 10.600
2200.000000, 10.700
2240.000000, 10.890
2270.000000, 11.023
2300.000000, 11.143
2330.000000, 11.252
2360.000000, 11.352
2400.000000, 11.473
2430.000000, 11.557
2470.000000, 11.664
2500.000000, 11.741
2540.000000, 11.840
2580.000000, 11.936
2620.000000, 12.028
2650.000000, 12.094
2690.000000, 12.178
2720.000000, 12.237
2760.000000, 12.308
2800.000000, 12.368
2850.000000, 12.428
2900.000000, 12.470
2950.000000, 12.493
3000.000000, 12.499
3040.000000, 12.491
3070.000000, 12.479
3110.000000, 12.453
3150.000000, 12.418
3200.000000, 12.360
3250.000000, 12.289
3300.000000, 12.204
3350.000000, 12.107
3400.000000, 12.000
3450.000000, 11.885
3500.000000, 11.764
3550.000000, 11.637
3600.000000, 11.507
3650.000000, 11.374
3700.000000, 11.240
3750.000000, 11.105
3820.000000, 10.918
3870.000000, 10.787
3950.000000, 10.584
4000.000000, 10.460
4060.000000, 10.316
4120.000000, 10.173
4180.000000, 10.031
4250.000000, 9.863
4310.000000, 9.715
4370.000000, 9.562
4440.000000, 9.378
4500.000000, 9.221
4550.000000, 9.091
4620.000000, 8.914
4680.000000, 8.767
4750.000000, 8.605
4820.000000, 8.452
4870.000000, 8.349
4940.000000, 8.215
5000.000000, 8.112
5080.000000, 7.991
5150.000000, 7.903
5220.000000, 7.832
5300.000000, 7.768
5380.000000, 7.720
5450.000000, 7.687
5520.000000, 7.661
5600.000000, 7.637
5700.000000, 7.613
5800.000000, 7.596
5900.000000, 7.587
6000.000000, 7.585
6080.000000, 7.589
6150.000000, 7.598
6220.000000, 7.613
6300.000000, 7.635
6400.000000, 7.672
6500.000000, 7.719
6600.000000, 7.775
6700.000000, 7.838
6800.000000, 7.906
6900.000000, 7.977
7000.000000, 8.048
7100.000000, 8.114
7200.000000, 8.173
7300.000000, 8.222
7400.000000, 8.257
7500.000000, 8.275
7620.000000, 8.271
7750.000000, 8.232
7880.000000, 8.155
8000.000000, 8.047
8120.000000, 7.903
8250.000000, 7.708
8380.000000, 7.474
8500.000000, 7.228
8620.000000, 6.956
8750.000000, 6.644
8850.000000, 6.399
9000.000000, 6.043
9120.000000, 5.783
9250.000000, 5.540
9380.000000, 5.350
9500.000000, 5.224
9620.000000, 5.148
9750.000000, 5.121
9880.000000, 5.152
10000.000000, 5.232
10150.000000, 5.402
10300.000000, 5.638
10440.000000, 5.889
10600.000000, 6.158
10750.000000, 6.332
10900.000000, 6.386
11060.000000, 6.301
11200.000000, 6.117
11380.000000, 5.768
11500.000000, 5.485
11720.000000, 4.908
11800.000000, 4.690
12060.000000, 4.006
12200.000000, 3.688
12410.000000, 3.313
12500.000000, 3.191
12650.000000, 3.037
12800.000000, 2.935
13150.000000, 2.812
13200.000000, 2.800
13400.000000, 2.756
13600.000000, 2.703
13800.000000, 2.624
14000.000000, 2.512
14300.000000, 2.287
14500.000000, 2.111
14750.000000, 1.882
15000.000000, 1.672
15250.000000, 1.510
15500.000000, 1.415
15750.000000, 1.395
16000.000000, 1.442
16250.000000, 1.540
16500.000000, 1.668
16750.000000, 1.806
17000.000000, 1.934
17250.000000, 2.036
17500.000000, 2.095
17750.000000, 2.092
18000.000000, 2.008
18250.000000, 1.824
18500.000000, 1.524
18750.000000, 1.100
19000.000000, 0.540
19250.000000, -0.192
19500.000000, -1.255
19750.000000, -2.786
20000.000000, -4.135
