* Measurement data measured by REW V5.20.13
* Source: Headset (DS by VECLAN.COM), MICROPHONE (Master Volume), L, volume: 0.720. Timing signal peak level -18.6 dBFS, measurement signal peak level -17.2 dBFS
* Format: 2M Log Swept Sine, 1 sweep at -12.0 dBFS using an acoustic timing reference
* Dated: Feb 15, 2024 3:05:52 PM
* REW Settings:
*  C-weighting compensation: Off
*  Target level: 75.0 dB
* Note: ; Delay -0.0693 ms (-24 mm, -0.94 in) using estimated IR delay relative to Acoustic reference played from HEADPHONE L with no timing offset
* Measurement: CCA Trio DDDD L
* Smoothing: 1/24 octave
* Frequency Step: 1/48 octave
* Start Frequency: 1.000 Hz
*
* Freq(Hz) SPL(dB) Phase(degrees)
1.000000 74.964 -85.3863
1.015000 75.232 -82.8850
1.030000 75.497 -80.5172
1.044000 75.740 -78.4397
1.060000 76.012 -76.2373
1.075000 76.259 -74.3533
1.090000 76.499 -72.6587
1.106000 76.746 -71.0712
1.120000 76.963 -69.8486
1.138000 77.244 -68.4859
1.150000 77.432 -67.7005
1.172000 77.779 -66.4967
1.180000 77.905 -66.1298
1.206000 78.316 -65.1742
1.220000 78.536 -64.7963
1.241000 78.865 -64.3868
1.250000 79.005 -64.2632
1.265000 79.236 -64.1187
1.280000 79.466 -64.0420
1.315000 79.990 -64.0716
1.320000 80.064 -64.0942
1.340000 80.353 -64.2159
1.360000 80.635 -64.3700
1.380000 80.908 -64.5326
1.400000 81.171 -64.6803
1.430000 81.545 -64.8221
1.450000 81.780 -64.8289
1.475000 82.055 -64.7189
1.500000 82.310 -64.6380
1.525000 82.548 -64.6236
1.550000 82.770 -64.6697
1.575000 82.978 -64.7701
1.600000 83.172 -64.9187
1.625000 83.355 -65.1094
1.650000 83.528 -65.3361
1.675000 83.693 -65.5927
1.700000 83.850 -65.8730
1.725000 84.002 -66.1710
1.750000 84.150 -66.4805
1.775000 84.296 -66.7954
1.800000 84.441 -67.1096
1.825000 84.586 -67.4169
1.850000 84.730 -67.7227
1.875000 84.866 -68.0497
1.900000 84.994 -68.3974
1.925000 85.115 -68.7643
1.950000 85.230 -69.1485
1.975000 85.341 -69.5483
2.000000 85.447 -69.9621
2.030000 85.570 -70.4747
2.060000 85.690 -71.0020
2.090000 85.808 -71.5410
2.120000 85.926 -72.0890
2.140000 86.006 -72.4578
2.180000 86.168 -73.1998
2.200000 86.252 -73.5713
2.240000 86.422 -74.3349
2.270000 86.550 -74.9291
2.300000 86.677 -75.5384
2.330000 86.803 -76.1599
2.360000 86.929 -76.7906
2.400000 87.094 -77.6410
2.430000 87.216 -78.2819
2.470000 87.375 -79.1353
2.500000 87.491 -79.7705
2.540000 87.641 -80.6057
2.580000 87.785 -81.4221
2.620000 87.924 -82.2278
2.650000 88.025 -82.8276
2.690000 88.156 -83.6234
2.720000 88.252 -84.2183
2.760000 88.376 -85.0109
2.800000 88.497 -85.8048
2.850000 88.644 -86.8022
2.900000 88.788 -87.8094
2.950000 88.928 -88.8317
3.000000 89.064 -89.8776
3.040000 89.170 -90.7268
3.070000 89.248 -91.3675
3.110000 89.348 -92.2227
3.150000 89.447 -93.0742
3.200000 89.566 -94.1255
3.250000 89.681 -95.1529
3.300000 89.793 -96.1461
3.350000 89.900 -97.1062
3.400000 90.003 -98.0413
3.450000 90.102 -98.9562
3.500000 90.197 -99.8552
3.550000 90.289 -100.7430
3.600000 90.378 -101.6241
3.650000 90.464 -102.5029
3.700000 90.547 -103.3836
3.750000 90.626 -104.2645
3.820000 90.731 -105.4895
3.870000 90.803 -106.3519
3.950000 90.913 -107.6970
4.000000 90.979 -108.5084
4.060000 91.056 -109.4456
4.120000 91.130 -110.3468
4.180000 91.201 -111.2176
4.250000 91.280 -112.2020
4.310000 91.345 -113.0248
4.370000 91.408 -113.8337
4.440000 91.480 -114.7640
4.500000 91.539 -115.5446
4.550000 91.586 -116.1823
4.620000 91.649 -117.0543
4.680000 91.703 -117.7817
4.750000 91.764 -118.6057
4.820000 91.825 -119.4004
4.870000 91.867 -119.9495
4.940000 91.925 -120.6959
5.000000 91.973 -121.3181
5.080000 92.036 -122.1280
5.150000 92.091 -122.8224
5.220000 92.145 -123.4983
5.300000 92.205 -124.2483
5.380000 92.264 -124.9779
5.450000 92.315 -125.6028
5.520000 92.365 -126.2174
5.600000 92.421 -126.9027
5.700000 92.491 -127.7353
5.800000 92.559 -128.5466
5.900000 92.625 -129.3409
6.000000 92.690 -130.1137
6.080000 92.740 -130.7186
6.150000 92.783 -131.2405
6.220000 92.826 -131.7574
6.300000 92.873 -132.3424
6.400000 92.930 -133.0624
6.500000 92.984 -133.7696
6.600000 93.037 -134.4640
6.700000 93.087 -135.1444
6.800000 93.136 -135.8117
6.900000 93.181 -136.4679
7.000000 93.225 -137.1149
7.100000 93.266 -137.7522
7.200000 93.304 -138.3790
7.300000 93.341 -138.9948
7.400000 93.374 -139.5993
7.500000 93.405 -140.1927
7.620000 93.439 -140.8904
7.750000 93.471 -141.6289
7.880000 93.499 -142.3496
8.000000 93.520 -142.9981
8.120000 93.537 -143.6300
8.250000 93.552 -144.2966
8.380000 93.561 -144.9421
8.500000 93.565 -145.5182
8.620000 93.564 -146.0773
8.750000 93.558 -146.6561
8.850000 93.549 -147.0793
9.000000 93.529 -147.6848
9.120000 93.507 -148.1289
9.250000 93.479 -148.5615
9.380000 93.446 -148.9493
9.500000 93.411 -149.2504
9.620000 93.370 -149.4902
9.750000 93.321 -149.6866
9.880000 93.268 -149.8020
10.000000 93.212 -149.8283
10.150000 93.139 -149.7617
10.300000 93.072 -149.5907
10.440000 93.013 -149.3200
10.600000 92.962 -148.9424
10.750000 92.940 -148.5483
10.900000 92.940 -148.1261
11.060000 92.967 -147.7610
11.200000 93.014 -147.4959
11.380000 93.092 -147.3139
11.500000 93.156 -147.3105
11.720000 93.280 -147.5425
11.800000 93.323 -147.7152
12.060000 93.457 -148.5627
12.200000 93.510 -149.1671
12.410000 93.565 -150.2347
12.500000 93.574 -150.7007
12.650000 93.571 -151.5193
12.800000 93.548 -152.3076
13.150000 93.414 -153.8432
13.200000 93.389 -154.0071
13.400000 93.276 -154.5168
13.600000 93.163 -154.7669
13.800000 93.057 -154.7297
14.000000 92.979 -154.4984
14.300000 92.924 -153.8728
14.500000 92.938 -153.4212
14.750000 93.001 -152.9907
15.000000 93.107 -152.7939
15.250000 93.229 -152.9267
15.500000 93.343 -153.3330
15.750000 93.437 -153.9617
16.000000 93.495 -154.6986
16.250000 93.520 -155.4241
16.500000 93.518 -156.0734
16.750000 93.498 -156.5695
17.000000 93.475 -156.9009
17.250000 93.456 -157.0873
17.500000 93.449 -157.1614
17.750000 93.458 -157.1956
18.000000 93.479 -157.2240
18.250000 93.510 -157.2834
18.500000 93.543 -157.3844
18.750000 93.577 -157.5162
19.000000 93.610 -157.6688
19.250000 93.641 -157.8240
19.500000 93.672 -157.9803
19.750000 93.702 -158.1372
20.000000 93.732 -158.3052
20.299999 93.765 -158.5276
20.600000 93.791 -158.7647
20.900000 93.808 -158.9910
21.200001 93.816 -159.1633
21.400000 93.820 -159.2267
21.799999 93.837 -159.2360
22.000000 93.855 -159.2035
22.400000 93.918 -159.1554
22.700001 93.986 -159.2289
23.000000 94.060 -159.4668
23.299999 94.126 -159.8691
23.600000 94.173 -160.3841
24.000000 94.199 -161.1123
24.299999 94.195 -161.5760
24.700001 94.177 -161.9979
25.000000 94.170 -162.1790
25.400000 94.181 -162.3369
25.799999 94.214 -162.5383
26.200001 94.250 -162.8475
26.500000 94.268 -163.1121
26.900000 94.281 -163.4094
27.200001 94.290 -163.5348
27.600000 94.319 -163.5784
28.000000 94.383 -163.6130
28.500000 94.497 -163.9207
29.000000 94.595 -164.6393
29.500000 94.631 -165.5204
30.000000 94.614 -166.1510
30.400000 94.599 -166.3690
30.700001 94.604 -166.4323
31.100000 94.637 -166.5515
31.500000 94.680 -166.8248
32.000000 94.709 -167.3329
32.500000 94.700 -167.7369
33.000000 94.692 -167.8351
33.500000 94.730 -167.7921
34.000000 94.811 -167.9606
34.500000 94.886 -168.4686
35.000000 94.918 -169.1100
35.500000 94.917 -169.5959
36.000000 94.923 -169.8731
36.500000 94.954 -170.1144
37.000000 94.997 -170.4869
37.500000 95.028 -170.9742
38.200001 95.042 -171.6111
38.700001 95.050 -171.9599
39.500000 95.080 -172.4897
40.000000 95.100 -172.8680
40.599998 95.116 -173.3336
41.200001 95.126 -173.7473
41.799999 95.138 -174.0969
42.500000 95.162 -174.4746
43.099998 95.192 -174.8284
43.700001 95.222 -175.2324
44.400002 95.252 -175.7501
45.000000 95.270 -176.2015
45.500000 95.281 -176.5644
46.200001 95.297 -177.0476
46.799999 95.311 -177.4566
47.500000 95.328 -177.9432
48.200001 95.342 -178.4167
48.700001 95.353 -178.7383
49.400002 95.370 -179.1846
50.000000 95.384 -179.5731
50.799999 95.399 179.9173
51.500000 95.409 179.4728
52.200001 95.410 179.0463
53.000000 95.409 178.6624
53.799999 95.427 178.3005
54.500000 95.448 177.8245
55.200001 95.446 177.2448
56.000000 95.420 176.6654
57.000000 95.388 176.0876
58.000000 95.365 175.6210
59.000000 95.378 175.2079
60.000000 95.407 174.5012
60.799999 95.397 173.8791
61.500000 95.378 173.4915
62.200001 95.375 173.1750
63.000000 95.381 172.7367
64.000000 95.375 172.1118
65.000000 95.359 171.5110
66.000000 95.346 170.9034
67.000000 95.332 170.1895
68.000000 95.289 169.4722
69.000000 95.249 168.9861
70.000000 95.239 168.4604
71.000000 95.214 167.8228
72.000000 95.177 167.3115
73.000000 95.149 166.8662
74.000000 95.121 166.4116
75.000000 95.092 166.0046
76.199997 95.075 165.4572
77.500000 95.022 164.6577
78.800003 94.936 164.2673
80.000000 94.924 164.0851
81.199997 94.946 163.3527
82.500000 94.855 162.2566
83.800003 94.733 161.9510
85.000000 94.709 161.6841
86.199997 94.688 161.0930
87.500000 94.643 160.5029
88.500000 94.610 160.1223
90.000000 94.559 159.5888
91.199997 94.518 159.1915
92.500000 94.469 158.6737
93.800003 94.399 158.1304
95.000000 94.332 157.7701
96.199997 94.292 157.4966
97.500000 94.271 157.0655
98.800003 94.233 156.6109
100.000000 94.191 156.2905
101.500000 94.138 155.8801
103.000000 94.064 155.3382
104.400002 93.968 154.8602
106.000000 93.866 154.3810
107.500000 93.782 153.9585
109.000000 93.710 153.5544
110.599998 93.639 153.1097
112.000000 93.573 152.6891
113.800003 93.477 152.1226
115.000000 93.403 151.8263
117.199997 93.291 151.5458
118.000000 93.257 151.4499
120.599998 93.133 151.0541
122.000000 93.061 150.7978
124.099998 92.959 150.3640
125.000000 92.916 150.1844
126.500000 92.836 149.9250
128.000000 92.734 149.7343
131.500000 92.467 149.1895
132.000000 92.436 149.0486
134.000000 92.345 148.4777
136.000000 92.323 148.3128
138.000000 92.329 148.4719
140.000000 92.255 148.8198
143.000000 92.088 148.9538
145.000000 91.974 148.4484
147.500000 91.898 147.9592
150.000000 91.798 147.3740
152.500000 91.623 147.3355
155.000000 91.477 147.2992
157.500000 91.351 147.1026
160.000000 91.236 146.9082
162.500000 91.127 146.7790
165.000000 91.015 146.7101
167.500000 90.894 146.7016
170.000000 90.780 146.7334
172.500000 90.672 146.7843
175.000000 90.564 146.8635
177.500000 90.459 146.9477
180.000000 90.354 146.9873
182.500000 90.243 147.0511
185.000000 90.129 147.1600
187.500000 90.021 147.3173
190.000000 89.919 147.4549
192.500000 89.816 147.5488
195.000000 89.717 147.6212
197.500000 89.623 147.7490
200.000000 89.529 148.0133
203.000000 89.416 148.3586
206.000000 89.298 148.6294
209.000000 89.183 148.8797
212.000000 89.075 149.0462
214.000000 89.008 149.1298
218.000000 88.899 149.4409
220.000000 88.843 149.6436
224.000000 88.702 150.1206
227.000000 88.603 150.4010
230.000000 88.514 150.6155
233.000000 88.436 150.9620
236.000000 88.374 151.4124
240.000000 88.280 151.9107
243.000000 88.191 152.2074
247.000000 88.082 152.6185
250.000000 88.011 152.9631
254.000000 87.919 153.5286
258.000000 87.825 154.0925
262.000000 87.739 154.5303
265.000000 87.685 154.8325
269.000000 87.602 155.3000
272.000000 87.533 155.6672
276.000000 87.451 156.1563
280.000000 87.396 156.6712
285.000000 87.334 157.3708
290.000000 87.254 157.9227
295.000000 87.173 158.3330
300.000000 87.093 158.9271
304.000000 87.033 159.4176
307.000000 86.992 159.7444
311.000000 86.938 160.1711
315.000000 86.903 160.7040
320.000000 86.857 161.3940
325.000000 86.785 162.0670
330.000000 86.730 162.6635
335.000000 86.686 163.2325
340.000000 86.640 163.8006
345.000000 86.596 164.3415
350.000000 86.549 164.8912
355.000000 86.496 165.4337
360.000000 86.446 166.0043
365.000000 86.400 166.5953
370.000000 86.358 167.1413
375.000000 86.321 167.6533
382.000000 86.278 168.3449
387.000000 86.245 168.8434
395.000000 86.183 169.6969
400.000000 86.141 170.2478
406.000000 86.089 170.8783
412.000000 86.051 171.5713
418.000000 86.019 172.1314
425.000000 85.965 172.7687
431.000000 85.934 173.4026
437.000000 85.913 173.9942
444.000000 85.876 174.7033
450.000000 85.840 175.3240
455.000000 85.810 175.8025
462.000000 85.773 176.4345
468.000000 85.744 176.9709
475.000000 85.712 177.5856
482.000000 85.695 178.2124
487.000000 85.675 178.6930
494.000000 85.638 179.3938
500.000000 85.615 179.9848
508.000000 85.592 -179.1980
515.000000 85.574 -178.5721
522.000000 85.550 -178.0133
530.000000 85.526 -177.3196
538.000000 85.503 -176.5729
545.000000 85.486 -175.9636
552.000000 85.476 -175.3431
560.000000 85.469 -174.6269
570.000000 85.456 -173.7580
580.000000 85.430 -172.8561
590.000000 85.404 -171.9263
600.000000 85.388 -171.0231
608.000000 85.376 -170.3145
615.000000 85.367 -169.6958
622.000000 85.359 -169.0783
630.000000 85.350 -168.3817
640.000000 85.341 -167.5168
650.000000 85.330 -166.6325
660.000000 85.316 -165.7209
670.000000 85.305 -164.7980
680.000000 85.302 -163.9136
690.000000 85.306 -163.0519
700.000000 85.313 -162.1653
710.000000 85.319 -161.2604
720.000000 85.325 -160.3595
730.000000 85.334 -159.4674
740.000000 85.347 -158.5752
750.000000 85.360 -157.6768
762.000000 85.370 -156.5977
775.000000 85.385 -155.4544
788.000000 85.412 -154.3022
800.000000 85.451 -153.2396
812.000000 85.496 -152.2074
825.000000 85.540 -151.1037
838.000000 85.576 -150.0095
850.000000 85.610 -148.9919
862.000000 85.646 -147.9535
875.000000 85.692 -146.8270
885.000000 85.735 -145.9537
900.000000 85.811 -144.5922
912.000000 85.886 -143.5069
925.000000 85.980 -142.4308
938.000000 86.081 -141.4844
950.000000 86.173 -140.6918
962.000000 86.257 -139.9453
975.000000 86.343 -139.1671
988.000000 86.427 -138.4151
1000.000000 86.502 -137.7400
1015.000000 86.596 -136.9073
1030.000000 86.689 -136.0965
1044.000000 86.778 -135.3745
1060.000000 86.883 -134.5970
1075.000000 86.982 -133.9084
1090.000000 87.083 -133.2480
1106.000000 87.196 -132.5649
1120.000000 87.294 -131.9936
1138.000000 87.419 -131.3011
1150.000000 87.502 -130.8527
1172.000000 87.654 -130.0620
1180.000000 87.709 -129.7884
1206.000000 87.886 -128.9296
1220.000000 87.979 -128.4796
1241.000000 88.118 -127.8160
1250.000000 88.176 -127.5389
1265.000000 88.271 -127.0866
1280.000000 88.362 -126.6341
1315.000000 88.561 -125.5436
1320.000000 88.589 -125.3896
1340.000000 88.696 -124.7886
1360.000000 88.786 -124.1826
1380.000000 88.871 -123.5541
1400.000000 88.968 -122.9238
1430.000000 89.127 -122.0071
1450.000000 89.236 -121.4305
1475.000000 89.370 -120.7382
1500.000000 89.499 -120.0315
1525.000000 89.625 -119.3302
1550.000000 89.747 -118.6327
1575.000000 89.862 -117.9181
1600.000000 89.980 -117.2068
1625.000000 90.106 -116.5110
1650.000000 90.242 -115.8354
1675.000000 90.380 -115.1786
1700.000000 90.509 -114.5060
1725.000000 90.625 -113.8266
1750.000000 90.743 -113.1601
1775.000000 90.873 -112.5311
1800.000000 91.013 -111.9330
1825.000000 91.157 -111.3599
1850.000000 91.300 -110.7960
1875.000000 91.438 -110.2521
1900.000000 91.575 -109.7369
1925.000000 91.713 -109.2541
1950.000000 91.848 -108.7964
1975.000000 91.983 -108.3620
2000.000000 92.121 -107.9620
2030.000000 92.291 -107.5273
2060.000000 92.467 -107.1382
2090.000000 92.648 -106.8143
2120.000000 92.824 -106.5457
2140.000000 92.936 -106.3801
2180.000000 93.147 -106.1043
2200.000000 93.251 -106.0091
2240.000000 93.462 -105.8993
2270.000000 93.623 -105.8845
2300.000000 93.781 -105.9246
2330.000000 93.932 -106.0106
2360.000000 94.075 -106.1398
2400.000000 94.255 -106.3828
2430.000000 94.380 -106.6055
2470.000000 94.529 -106.9465
2500.000000 94.632 -107.2411
2540.000000 94.758 -107.6761
2580.000000 94.873 -108.1542
2620.000000 94.977 -108.6698
2650.000000 95.045 -109.0677
2690.000000 95.115 -109.5790
2720.000000 95.156 -109.9521
2760.000000 95.197 -110.4552
2800.000000 95.222 -110.9518
2850.000000 95.228 -111.4868
2900.000000 95.216 -111.8074
2950.000000 95.214 -111.9405
3000.000000 95.244 -112.1158
3040.000000 95.276 -112.3885
3070.000000 95.291 -112.6646
3110.000000 95.290 -113.0920
3150.000000 95.261 -113.5295
3200.000000 95.198 -114.0268
3250.000000 95.124 -114.4501
3300.000000 95.038 -114.7839
3350.000000 94.931 -115.0133
3400.000000 94.809 -115.1483
3450.000000 94.680 -115.2128
3500.000000 94.543 -115.1854
3550.000000 94.392 -115.0320
3600.000000 94.224 -114.7163
3650.000000 94.045 -114.1724
3700.000000 93.868 -113.3511
3750.000000 93.707 -112.2783
3820.000000 93.534 -110.5020
3870.000000 93.448 -109.1469
3950.000000 93.360 -107.0030
4000.000000 93.329 -105.7106
4060.000000 93.312 -104.2178
4120.000000 93.318 -102.8248
4180.000000 93.342 -101.5522
4250.000000 93.379 -100.2479
4310.000000 93.405 -99.2750
4370.000000 93.421 -98.4147
4440.000000 93.427 -97.5167
4500.000000 93.423 -96.8143
4550.000000 93.414 -96.2767
4620.000000 93.395 -95.5888
4680.000000 93.370 -95.0526
4750.000000 93.325 -94.4740
4820.000000 93.261 -93.9231
4870.000000 93.205 -93.5397
4940.000000 93.114 -92.9995
5000.000000 93.024 -92.5160
5080.000000 92.889 -91.8269
5150.000000 92.753 -91.1505
5220.000000 92.600 -90.3775
5300.000000 92.416 -89.3661
5380.000000 92.228 -88.2074
5450.000000 92.062 -87.0666
5520.000000 91.896 -85.8124
5600.000000 91.708 -84.2496
5700.000000 91.479 -82.1038
5800.000000 91.266 -79.7686
5900.000000 91.076 -77.2555
6000.000000 90.905 -74.5736
6080.000000 90.779 -72.3167
6150.000000 90.680 -70.2678
6220.000000 90.596 -68.1578
6300.000000 90.526 -65.6912
6400.000000 90.480 -62.5446
6500.000000 90.472 -59.3438
6600.000000 90.502 -56.1273
6700.000000 90.575 -52.9277
6800.000000 90.707 -49.7921
6900.000000 90.916 -46.7679
7000.000000 91.196 -43.8950
7100.000000 91.534 -41.2416
7200.000000 91.926 -38.8957
7300.000000 92.372 -36.9810
7400.000000 92.865 -35.6219
7500.000000 93.393 -34.9494
7620.000000 94.058 -35.2513
7750.000000 94.738 -37.1758
7880.000000 95.198 -40.8212
8000.000000 95.355 -45.4153
8120.000000 95.218 -50.5148
8250.000000 94.731 -55.6074
8380.000000 93.948 -59.3477
8500.000000 93.055 -61.2046
8620.000000 92.089 -61.5267
8750.000000 91.031 -60.3617
8850.000000 90.239 -58.5771
9000.000000 89.137 -54.7786
9120.000000 88.354 -50.9983
9250.000000 87.607 -46.3669
9380.000000 86.963 -41.3443
9500.000000 86.453 -36.4770
9620.000000 86.016 -31.4524
9750.000000 85.621 -25.8766
9880.000000 85.312 -20.2080
10000.000000 85.103 -14.9321
10150.000000 84.946 -8.3447
10300.000000 84.910 -1.8597
10440.000000 84.985 3.9910
10600.000000 85.201 10.2454
10750.000000 85.534 15.4291
10900.000000 85.981 19.6240
11060.000000 86.530 22.6280
11200.000000 86.992 23.7596
11380.000000 87.418 23.1429
11500.000000 87.517 21.7848
11720.000000 87.233 19.0974
11800.000000 86.999 18.5392
12060.000000 86.005 19.3486
12200.000000 85.453 21.2186
12410.000000 84.723 25.0237
12500.000000 84.454 26.8074
12650.000000 84.057 29.7549
12800.000000 83.697 32.4993
13150.000000 82.760 38.2784
13200.000000 82.601 39.1650
13400.000000 81.919 43.2501
13600.000000 81.225 48.3453
13800.000000 80.608 54.3417
14000.000000 80.124 60.9637
14300.000000 79.695 71.4519
14500.000000 79.626 78.3468
14750.000000 79.778 86.1843
15000.000000 80.159 92.4551
15250.000000 80.691 96.3718
15500.000000 81.226 97.2792
15750.000000 81.513 95.2786
16000.000000 81.320 91.7530
16250.000000 80.611 88.8187
16500.000000 79.542 87.9412
16750.000000 78.330 89.2867
17000.000000 77.141 92.1915
17250.000000 76.055 95.7662
17500.000000 75.065 99.2316
17750.000000 74.094 102.1157
18000.000000 73.027 104.4260
18250.000000 71.778 106.6954
18500.000000 70.364 109.7917
18750.000000 68.919 114.5142
19000.000000 67.561 121.2924
19250.000000 66.217 130.1809
19500.000000 64.720 140.9551
19750.000000 63.054 153.3819
20000.000000 61.292 167.2051
20300.000000 59.204 -174.7541
20600.000000 57.379 -155.9078
20900.000000 55.851 -143.9788
21200.000000 54.607 152.2381
21400.000000 53.872 -90.3580
21800.000000 51.946 -115.7605
22000.000000 50.194 113.7827
22400.000000 44.099 169.1250
22700.000000 38.083 -118.7637
23000.000000 33.558 -91.5625
23300.000000 32.090 179.5703
23600.000000 31.622 -116.7031
24000.000000 30.830 128.7812
