* Measurement data measured by REW V5.20.13
* Source: Headset (DS by VECLAN.COM), MICROPHONE (Master Volume), L, volume: 0.720. Timing signal peak level -15.0 dBFS, measurement signal peak level -14.3 dBFS
* Format: 4M Log Swept Sine, 1 sweep at -12.0 dBFS using an acoustic timing reference
* Dated: Dec 5, 2023 10:55:11 AM
* REW Settings:
*  C-weighting compensation: Off
*  Target level: 75.0 dB
* Note: ; Apple + Abigail Delay -0.0586 ms (-20 mm, -0.79 in) using estimated IR delay relative to Acoustic reference played from  L with no timing offset
* Measurement: CCA CRA L
* Smoothing: 1/24 octave
* Frequency Step: 1/48 octave
* Start Frequency: 1.000 Hz
*
* Freq(Hz) SPL(dB) Phase(degrees)
1.000000 70.548 -4.6740
1.015000 71.104 -5.8889
1.030000 71.642 -7.0922
1.044000 72.123 -8.2012
1.060000 72.645 -9.4478
1.075000 73.103 -10.5922
1.090000 73.526 -11.7089
1.106000 73.939 -12.8719
1.120000 74.285 -13.8997
1.138000 74.718 -15.2422
1.150000 74.998 -16.1482
1.172000 75.495 -17.8272
1.180000 75.671 -18.4420
1.206000 76.226 -20.4498
1.220000 76.514 -21.5334
1.241000 76.933 -23.1558
1.250000 77.108 -23.8485
1.265000 77.394 -24.9973
1.280000 77.674 -26.1367
1.315000 78.300 -28.7434
1.320000 78.387 -29.1083
1.340000 78.728 -30.5458
1.360000 79.060 -31.9424
1.380000 79.384 -33.2918
1.400000 79.700 -34.5875
1.430000 80.163 -36.4165
1.450000 80.465 -37.5502
1.475000 80.835 -38.8605
1.500000 81.185 -40.0578
1.525000 81.515 -41.1536
1.550000 81.827 -42.1582
1.575000 82.122 -43.0822
1.600000 82.402 -43.9360
1.625000 82.668 -44.7302
1.650000 82.924 -45.4752
1.675000 83.170 -46.1814
1.700000 83.409 -46.8594
1.725000 83.642 -47.5196
1.750000 83.871 -48.1725
1.775000 84.098 -48.8286
1.800000 84.325 -49.4984
1.825000 84.553 -50.1923
1.850000 84.782 -50.9032
1.875000 85.003 -51.5953
1.900000 85.217 -52.2683
1.925000 85.425 -52.9239
1.950000 85.628 -53.5637
1.975000 85.825 -54.1893
2.000000 86.018 -54.8023
2.030000 86.244 -55.5235
2.060000 86.465 -56.2317
2.090000 86.682 -56.9295
2.120000 86.897 -57.6198
2.140000 87.039 -58.0772
2.180000 87.322 -58.9889
2.200000 87.464 -59.4448
2.240000 87.744 -60.3423
2.270000 87.949 -60.9998
2.300000 88.152 -61.6457
2.330000 88.351 -62.2817
2.360000 88.547 -62.9094
2.400000 88.803 -63.7361
2.430000 88.991 -64.3507
2.470000 89.238 -65.1660
2.500000 89.420 -65.7765
2.540000 89.658 -66.5923
2.580000 89.890 -67.4123
2.620000 90.118 -68.2283
2.650000 90.284 -68.8366
2.690000 90.502 -69.6436
2.720000 90.661 -70.2462
2.760000 90.870 -71.0470
2.800000 91.073 -71.8456
2.850000 91.321 -72.8422
2.900000 91.562 -73.8387
2.950000 91.797 -74.8373
3.000000 92.023 -75.8419
3.040000 92.198 -76.6478
3.070000 92.327 -77.2521
3.110000 92.494 -78.0558
3.150000 92.657 -78.8551
3.200000 92.856 -79.8449
3.250000 93.049 -80.8200
3.300000 93.238 -81.7761
3.350000 93.421 -82.7120
3.400000 93.597 -83.6310
3.450000 93.768 -84.5365
3.500000 93.933 -85.4318
3.550000 94.093 -86.3202
3.600000 94.249 -87.2052
3.650000 94.401 -88.0900
3.700000 94.549 -88.9774
3.750000 94.692 -89.8656
3.820000 94.884 -91.1049
3.870000 95.016 -91.9831
3.950000 95.219 -93.3676
4.000000 95.341 -94.2153
4.060000 95.483 -95.2108
4.120000 95.619 -96.1861
4.180000 95.749 -97.1438
4.250000 95.894 -98.2417
4.310000 96.014 -99.1684
4.370000 96.130 -100.0841
4.440000 96.261 -101.1404
4.500000 96.368 -102.0339
4.550000 96.454 -102.7694
4.620000 96.570 -103.7839
4.680000 96.666 -104.6384
4.750000 96.775 -105.6165
4.820000 96.881 -106.5723
4.870000 96.953 -107.2413
4.940000 97.052 -108.1610
5.000000 97.134 -108.9359
5.080000 97.239 -109.9532
5.150000 97.327 -110.8315
5.220000 97.412 -111.6981
5.300000 97.504 -112.6718
5.380000 97.593 -113.6263
5.450000 97.667 -114.4445
5.520000 97.739 -115.2458
5.600000 97.817 -116.1414
5.700000 97.909 -117.2318
5.800000 97.998 -118.2914
5.900000 98.083 -119.3207
6.000000 98.165 -120.3147
6.080000 98.228 -121.0890
6.150000 98.282 -121.7552
6.220000 98.335 -122.4145
6.300000 98.395 -123.1585
6.400000 98.467 -124.0702
6.500000 98.536 -124.9653
6.600000 98.604 -125.8480
6.700000 98.668 -126.7179
6.800000 98.731 -127.5739
6.900000 98.790 -128.4176
7.000000 98.848 -129.2503
7.100000 98.903 -130.0707
7.200000 98.957 -130.8796
7.300000 99.008 -131.6787
7.400000 99.056 -132.4684
7.500000 99.103 -133.2480
7.620000 99.156 -134.1711
7.750000 99.210 -135.1581
7.880000 99.259 -136.1328
8.000000 99.300 -137.0164
8.120000 99.337 -137.8809
8.250000 99.372 -138.7997
8.380000 99.404 -139.6913
8.500000 99.429 -140.4833
8.620000 99.451 -141.2488
8.750000 99.472 -142.0454
8.850000 99.488 -142.6321
9.000000 99.510 -143.4697
9.120000 99.528 -144.1111
9.250000 99.550 -144.7803
9.380000 99.574 -145.4199
9.500000 99.596 -145.9990
9.620000 99.617 -146.5730
9.750000 99.641 -147.1840
9.880000 99.660 -147.7960
10.000000 99.671 -148.3674
10.150000 99.679 -149.0847
10.300000 99.679 -149.8027
10.440000 99.671 -150.4741
10.600000 99.658 -151.2406
10.750000 99.645 -151.9568
10.900000 99.629 -152.6709
11.060000 99.611 -153.4291
11.200000 99.595 -154.0920
11.380000 99.571 -154.9233
11.500000 99.553 -155.4605
11.720000 99.519 -156.4109
11.800000 99.507 -156.7426
12.060000 99.471 -157.7787
12.200000 99.455 -158.3211
12.410000 99.434 -159.1154
12.500000 99.426 -159.4531
12.650000 99.413 -160.0101
12.800000 99.401 -160.5650
13.150000 99.370 -161.8646
13.200000 99.366 -162.0500
13.400000 99.347 -162.7941
13.600000 99.325 -163.5238
13.800000 99.300 -164.2346
14.000000 99.272 -164.9096
14.300000 99.226 -165.8459
14.500000 99.195 -166.4057
14.750000 99.162 -167.0460
15.000000 99.139 -167.6318
15.250000 99.129 -168.2048
15.500000 99.131 -168.7971
15.750000 99.140 -169.4281
16.000000 99.151 -170.1201
16.250000 99.157 -170.8698
16.500000 99.155 -171.6655
16.750000 99.143 -172.4837
17.000000 99.120 -173.2839
17.250000 99.086 -174.0438
17.500000 99.045 -174.7365
17.750000 98.998 -175.3480
18.000000 98.951 -175.8805
18.250000 98.905 -176.3378
18.500000 98.867 -176.7352
18.750000 98.837 -177.0897
19.000000 98.817 -177.4179
19.250000 98.808 -177.7520
19.500000 98.806 -178.1098
19.750000 98.810 -178.5060
20.000000 98.816 -178.9525
20.299999 98.819 -179.5482
20.600000 98.816 179.8083
20.900000 98.801 179.1483
21.200001 98.774 178.5108
21.400000 98.752 178.1176
21.799999 98.703 177.4190
22.000000 98.680 177.1106
22.400000 98.641 176.5442
22.700001 98.620 176.1234
23.000000 98.604 175.6720
23.299999 98.588 175.1801
23.600000 98.567 174.6581
24.000000 98.530 173.9545
24.299999 98.496 173.4589
24.700001 98.446 172.8730
25.000000 98.412 172.4879
25.400000 98.376 172.0127
25.799999 98.351 171.5232
26.200001 98.331 170.9753
26.500000 98.314 170.5254
26.900000 98.283 169.9014
27.200001 98.253 169.4449
27.600000 98.207 168.8820
28.000000 98.159 168.3785
28.500000 98.104 167.8000
29.000000 98.054 167.2329
29.500000 98.003 166.6746
30.000000 97.947 166.1600
30.400000 97.902 165.7941
30.700001 97.871 165.5391
31.100000 97.836 165.1987
31.500000 97.805 164.8321
32.000000 97.767 164.3252
32.500000 97.720 163.7999
33.000000 97.666 163.3127
33.500000 97.612 162.8790
34.000000 97.565 162.4608
34.500000 97.524 162.0126
35.000000 97.481 161.5321
35.500000 97.435 161.0525
36.000000 97.386 160.5989
36.500000 97.337 160.1631
37.000000 97.287 159.7236
37.500000 97.232 159.2880
38.200001 97.151 158.7500
38.700001 97.097 158.4262
39.500000 97.024 157.9150
40.000000 96.981 157.5697
40.599998 96.927 157.1504
41.200001 96.870 156.7465
41.799999 96.814 156.3552
42.500000 96.750 155.9089
43.099998 96.696 155.5337
43.700001 96.642 155.1569
44.400002 96.577 154.7113
45.000000 96.518 154.3400
45.500000 96.467 154.0507
46.200001 96.397 153.6729
46.799999 96.340 153.3577
47.500000 96.275 152.9901
48.200001 96.211 152.6298
48.700001 96.166 152.3765
49.400002 96.103 152.0257
50.000000 96.048 151.7430
50.799999 95.976 151.4185
51.500000 95.920 151.1701
52.200001 95.871 150.9051
53.000000 95.816 150.5288
53.799999 95.743 150.1202
54.500000 95.667 149.8407
55.200001 95.596 149.6406
56.000000 95.527 149.3865
57.000000 95.441 148.9772
58.000000 95.354 148.5322
59.000000 95.257 148.0208
60.000000 95.146 147.6496
60.799999 95.078 147.4670
61.500000 95.033 147.2824
62.200001 94.987 147.0742
63.000000 94.930 146.8682
64.000000 94.859 146.6580
65.000000 94.788 146.4717
66.000000 94.714 146.2924
67.000000 94.633 146.1045
68.000000 94.545 145.9300
69.000000 94.458 145.7735
70.000000 94.378 145.5988
71.000000 94.301 145.3413
72.000000 94.216 145.0800
73.000000 94.137 144.8990
74.000000 94.069 144.7287
75.000000 94.004 144.5313
76.199997 93.923 144.2920
77.500000 93.831 144.0690
78.800003 93.742 143.8748
80.000000 93.657 143.6860
81.199997 93.567 143.5247
82.500000 93.471 143.3726
83.800003 93.377 143.2170
85.000000 93.293 143.0812
86.199997 93.211 142.9486
87.500000 93.126 142.8186
88.500000 93.063 142.7324
90.000000 92.971 142.6027
91.199997 92.896 142.5038
92.500000 92.814 142.4148
93.800003 92.734 142.3380
95.000000 92.658 142.2754
96.199997 92.582 142.2277
97.500000 92.502 142.2053
98.800003 92.428 142.1680
100.000000 92.357 142.1091
101.500000 92.267 142.0324
103.000000 92.181 141.9636
104.400002 92.102 141.8951
106.000000 92.010 141.8171
107.500000 91.925 141.7836
109.000000 91.847 141.7563
110.599998 91.762 141.7024
112.000000 91.680 141.6709
113.800003 91.574 141.7201
115.000000 91.506 141.7722
117.199997 91.387 141.8688
118.000000 91.346 141.9047
120.599998 91.224 141.9181
122.000000 91.156 141.9037
124.099998 91.060 141.9067
125.000000 91.020 141.9070
126.500000 90.951 141.9214
128.000000 90.883 141.9678
131.500000 90.730 142.0869
132.000000 90.706 142.1138
134.000000 90.617 142.2772
136.000000 90.540 142.4315
138.000000 90.466 142.4741
140.000000 90.386 142.4596
143.000000 90.272 142.5718
145.000000 90.199 142.7494
147.500000 90.105 142.9384
150.000000 90.002 143.0570
152.500000 89.911 143.1943
155.000000 89.828 143.3347
157.500000 89.740 143.5016
160.000000 89.652 143.6535
162.500000 89.576 143.8145
165.000000 89.502 143.9821
167.500000 89.418 144.1852
170.000000 89.327 144.3590
172.500000 89.236 144.4807
175.000000 89.156 144.5872
177.500000 89.084 144.7672
180.000000 89.015 145.0641
182.500000 88.938 145.3861
185.000000 88.850 145.6264
187.500000 88.764 145.7898
190.000000 88.691 146.0020
192.500000 88.628 146.2250
195.000000 88.559 146.4318
197.500000 88.494 146.6474
200.000000 88.441 146.8553
203.000000 88.376 147.0984
206.000000 88.296 147.3304
209.000000 88.211 147.5646
212.000000 88.132 147.8739
214.000000 88.082 148.1154
218.000000 87.986 148.4998
220.000000 87.942 148.6265
224.000000 87.855 148.9219
227.000000 87.790 149.2243
230.000000 87.721 149.5361
233.000000 87.654 149.8367
236.000000 87.595 150.1401
240.000000 87.526 150.5318
243.000000 87.468 150.7910
247.000000 87.390 151.1255
250.000000 87.338 151.4037
254.000000 87.265 151.8029
258.000000 87.188 152.2053
262.000000 87.123 152.6007
265.000000 87.077 152.8856
269.000000 87.018 153.2382
272.000000 86.974 153.5068
276.000000 86.915 153.9064
280.000000 86.853 154.3181
285.000000 86.781 154.7852
290.000000 86.714 155.2409
295.000000 86.647 155.6999
300.000000 86.581 156.1794
304.000000 86.529 156.5853
307.000000 86.493 156.8657
311.000000 86.448 157.2245
315.000000 86.406 157.5958
320.000000 86.354 158.0619
325.000000 86.299 158.5120
330.000000 86.247 158.9676
335.000000 86.200 159.4193
340.000000 86.152 159.8699
345.000000 86.103 160.3342
350.000000 86.055 160.8040
355.000000 86.007 161.2747
360.000000 85.960 161.7423
365.000000 85.916 162.1927
370.000000 85.872 162.6427
375.000000 85.830 163.0978
382.000000 85.775 163.7275
387.000000 85.737 164.1673
395.000000 85.677 164.8610
400.000000 85.637 165.2941
406.000000 85.589 165.8439
412.000000 85.544 166.3926
418.000000 85.502 166.9215
425.000000 85.459 167.5351
431.000000 85.421 168.0552
437.000000 85.380 168.5674
444.000000 85.331 169.1786
450.000000 85.288 169.7071
455.000000 85.255 170.1388
462.000000 85.215 170.7251
468.000000 85.184 171.2272
475.000000 85.150 171.8189
482.000000 85.120 172.4140
487.000000 85.103 172.8339
494.000000 85.081 173.4129
500.000000 85.061 173.9089
508.000000 85.029 174.5845
515.000000 84.998 175.1895
522.000000 84.968 175.8008
530.000000 84.940 176.4809
538.000000 84.918 177.1349
545.000000 84.900 177.7217
552.000000 84.881 178.3280
560.000000 84.859 179.0236
570.000000 84.836 179.8725
580.000000 84.815 -179.2635
590.000000 84.794 -178.3826
600.000000 84.775 -177.5122
608.000000 84.761 -176.8007
615.000000 84.751 -176.1606
622.000000 84.744 -175.5051
630.000000 84.737 -174.7516
640.000000 84.730 -173.8244
650.000000 84.732 -172.8806
660.000000 84.741 -171.9196
670.000000 84.752 -170.9908
680.000000 84.765 -170.0637
690.000000 84.781 -169.1250
700.000000 84.803 -168.1996
710.000000 84.846 -167.3216
720.000000 84.907 -166.5099
730.000000 84.972 -165.7546
740.000000 85.035 -165.0363
750.000000 85.096 -164.3705
762.000000 85.162 -163.6628
775.000000 85.220 -162.9840
788.000000 85.261 -162.2738
800.000000 85.303 -161.5220
812.000000 85.357 -160.7827
825.000000 85.415 -160.0633
838.000000 85.470 -159.3776
850.000000 85.518 -158.7350
862.000000 85.567 -158.1045
875.000000 85.620 -157.4455
885.000000 85.658 -156.9435
900.000000 85.718 -156.1941
912.000000 85.770 -155.5883
925.000000 85.825 -154.9458
938.000000 85.877 -154.3110
950.000000 85.929 -153.7366
962.000000 85.990 -153.1839
975.000000 86.063 -152.5903
988.000000 86.140 -151.9964
1000.000000 86.208 -151.4719
1015.000000 86.281 -150.8958
1030.000000 86.355 -150.3644
1044.000000 86.426 -149.8777
1060.000000 86.510 -149.3433
1075.000000 86.587 -148.8695
1090.000000 86.669 -148.4350
1106.000000 86.766 -148.0070
1120.000000 86.855 -147.6602
1138.000000 86.967 -147.2582
1150.000000 87.039 -147.0031
1172.000000 87.168 -146.5560
1180.000000 87.214 -146.4001
1206.000000 87.359 -145.9381
1220.000000 87.438 -145.7229
1241.000000 87.556 -145.4147
1250.000000 87.605 -145.2822
1265.000000 87.686 -145.0727
1280.000000 87.761 -144.8667
1315.000000 87.926 -144.4035
1320.000000 87.949 -144.3442
1340.000000 88.036 -144.1055
1360.000000 88.100 -143.8536
1380.000000 88.160 -143.6071
1400.000000 88.230 -143.3703
1430.000000 88.339 -143.0100
1450.000000 88.416 -142.7787
1475.000000 88.509 -142.4792
1500.000000 88.597 -142.1750
1525.000000 88.678 -141.8787
1550.000000 88.751 -141.5802
1575.000000 88.820 -141.2796
1600.000000 88.890 -140.9858
1625.000000 88.958 -140.7045
1650.000000 89.026 -140.4181
1675.000000 89.095 -140.1349
1700.000000 89.161 -139.8556
1725.000000 89.224 -139.5692
1750.000000 89.285 -139.2893
1775.000000 89.346 -139.0143
1800.000000 89.406 -138.7442
1825.000000 89.465 -138.4852
1850.000000 89.524 -138.2357
1875.000000 89.580 -137.9811
1900.000000 89.634 -137.7249
1925.000000 89.687 -137.4716
1950.000000 89.738 -137.2235
1975.000000 89.792 -136.9757
2000.000000 89.844 -136.7365
2030.000000 89.897 -136.4760
2060.000000 89.950 -136.2164
2090.000000 90.004 -135.9553
2120.000000 90.057 -135.7025
2140.000000 90.091 -135.5375
2180.000000 90.158 -135.2057
2200.000000 90.189 -135.0409
2240.000000 90.248 -134.7061
2270.000000 90.291 -134.4554
2300.000000 90.330 -134.2060
2330.000000 90.368 -133.9566
2360.000000 90.404 -133.7068
2400.000000 90.447 -133.3573
2430.000000 90.476 -133.0785
2470.000000 90.515 -132.7076
2500.000000 90.545 -132.4255
2540.000000 90.585 -132.0464
2580.000000 90.623 -131.6571
2620.000000 90.659 -131.2594
2650.000000 90.685 -130.9603
2690.000000 90.716 -130.5480
2720.000000 90.736 -130.2226
2760.000000 90.758 -129.7729
2800.000000 90.780 -129.3090
2850.000000 90.808 -128.6982
2900.000000 90.834 -128.0181
2950.000000 90.857 -127.2494
3000.000000 90.889 -126.3748
3040.000000 90.932 -125.6470
3070.000000 90.974 -125.0994
3110.000000 91.036 -124.3766
3150.000000 91.109 -123.7098
3200.000000 91.207 -122.9655
3250.000000 91.302 -122.2971
3300.000000 91.391 -121.6584
3350.000000 91.478 -121.0214
3400.000000 91.568 -120.3821
3450.000000 91.663 -119.7377
3500.000000 91.764 -119.0875
3550.000000 91.869 -118.4378
3600.000000 91.978 -117.7902
3650.000000 92.094 -117.1503
3700.000000 92.218 -116.5315
3750.000000 92.350 -115.9336
3820.000000 92.545 -115.1244
3870.000000 92.688 -114.5713
3950.000000 92.929 -113.7400
4000.000000 93.093 -113.2911
4060.000000 93.305 -112.8755
4120.000000 93.527 -112.6322
4180.000000 93.756 -112.6002
4250.000000 94.026 -112.8525
4310.000000 94.242 -113.3258
4370.000000 94.433 -114.0454
4440.000000 94.612 -115.2273
4500.000000 94.700 -116.5232
4550.000000 94.692 -117.6464
4620.000000 94.536 -118.4087
4680.000000 94.429 -117.4498
4750.000000 94.653 -115.8047
4820.000000 95.078 -116.1529
4870.000000 95.308 -117.5622
4940.000000 95.472 -120.1410
5000.000000 95.492 -122.4058
5080.000000 95.386 -125.1584
5150.000000 95.204 -127.2210
5220.000000 94.966 -128.9059
5300.000000 94.656 -130.3655
5380.000000 94.326 -131.4082
5450.000000 94.024 -132.0419
5520.000000 93.706 -132.4336
5600.000000 93.317 -132.5790
5700.000000 92.767 -132.1720
5800.000000 92.126 -130.2155
5900.000000 91.742 -125.6665
6000.000000 91.891 -122.8487
6080.000000 91.867 -122.5499
6150.000000 91.704 -121.9191
6220.000000 91.526 -120.6781
6300.000000 91.359 -118.8034
6400.000000 91.220 -116.1263
6500.000000 91.157 -113.3003
6600.000000 91.164 -110.4171
6700.000000 91.239 -107.5248
6800.000000 91.390 -104.6850
6900.000000 91.638 -101.9357
7000.000000 91.984 -99.3182
7100.000000 92.420 -96.9177
7200.000000 92.949 -94.8593
7300.000000 93.576 -93.2918
7400.000000 94.301 -92.3946
7500.000000 95.125 -92.4132
7620.000000 96.230 -94.1468
7750.000000 97.440 -98.9524
7880.000000 98.340 -107.4676
8000.000000 98.654 -118.1022
8120.000000 98.336 -129.3818
8250.000000 97.343 -139.5261
8380.000000 95.936 -145.9627
8500.000000 94.522 -148.7669
8620.000000 93.149 -149.3066
8750.000000 91.773 -148.1266
8850.000000 90.807 -146.3530
9000.000000 89.518 -142.6992
9120.000000 88.617 -139.1236
9250.000000 87.761 -134.7553
9380.000000 87.023 -130.0092
9500.000000 86.444 -125.3945
9620.000000 85.959 -120.6305
9750.000000 85.536 -115.3501
9880.000000 85.217 -109.9881
10000.000000 85.011 -105.0227
10150.000000 84.866 -98.8707
10300.000000 84.840 -92.8637
10440.000000 84.925 -87.4583
10600.000000 85.153 -81.5860
10750.000000 85.499 -76.4830
10900.000000 85.979 -71.9425
11060.000000 86.639 -67.9807
11200.000000 87.330 -65.5488
11380.000000 88.325 -64.4093
11500.000000 88.994 -65.2617
11720.000000 89.981 -70.7058
11800.000000 90.184 -73.8092
12060.000000 90.020 -85.2522
12200.000000 89.435 -90.3441
12410.000000 88.137 -94.8852
12500.000000 87.491 -95.5780
12650.000000 86.387 -95.1491
12800.000000 85.333 -93.0858
13150.000000 83.320 -84.2336
13200.000000 83.090 -82.6806
13400.000000 82.316 -76.0480
13600.000000 81.762 -68.9408
13800.000000 81.442 -61.5799
14000.000000 81.363 -54.3003
14300.000000 81.631 -44.1239
14500.000000 82.061 -37.9458
14750.000000 82.916 -31.5299
15000.000000 84.083 -27.6822
15250.000000 85.378 -27.8919
15500.000000 86.427 -33.1000
15750.000000 86.795 -41.6387
16000.000000 86.356 -49.2166
16250.000000 85.413 -52.2114
16500.000000 84.647 -50.1698
16750.000000 84.587 -47.2381
17000.000000 85.017 -46.3219
17250.000000 85.845 -48.5425
17500.000000 86.822 -57.3724
17750.000000 87.052 -75.1719
18000.000000 85.704 -95.2715
18250.000000 82.791 -106.8742
18500.000000 79.062 -107.4473
18750.000000 75.323 -100.1734
19000.000000 71.993 -87.5068
19250.000000 69.222 -70.1678
19500.000000 67.361 -48.9452
19750.000000 67.045 -27.1275
20000.000000 68.046 -10.4378
20300.000000 69.562 -1.7421
20600.000000 70.352 -2.1707
20900.000000 70.183 -4.9966
21200.000000 69.349 -5.4771
21400.000000 68.645 -3.8925
21800.000000 67.411 0.6854
22000.000000 66.984 -4.7538
22400.000000 65.857 103.5410
22700.000000 63.221 -46.8885
23000.000000 57.876 65.6260
23300.000000 50.507 12.4746
23600.000000 44.199 154.5742
24000.000000 42.239 34.4766
