* Measurement data measured by REW V5.20.13
* Source: Headset (DS by VECLAN.COM), MICROPHONE (Master Volume), L, volume: 0.720. Timing signal peak level -16.4 dBFS, measurement signal peak level -15.5 dBFS
* Format: 4M Log Swept Sine, 1 sweep at -12.0 dBFS using an acoustic timing reference
* Dated: Dec 5, 2023 11:15:36 AM
* REW Settings:
*  C-weighting compensation: Off
*  Target level: 75.0 dB
* Note: ; Apple + Abigail & Spinfits CP145 tips Delay -0.1145 ms (-39 mm, -1.55 in) using estimated IR delay relative to Acoustic reference played from  R with no timing offset
* Measurement: CCA CRA CP145 R
* Smoothing: 1/24 octave
* Frequency Step: 1/48 octave
* Start Frequency: 1.000 Hz
*
* Freq(Hz) SPL(dB) Phase(degrees)
1.000000 75.006 -61.2395
1.015000 75.339 -62.8298
1.030000 75.665 -64.2506
1.044000 75.963 -65.4162
1.060000 76.292 -66.5493
1.075000 76.590 -67.4100
1.090000 76.874 -68.0668
1.106000 77.164 -68.5138
1.120000 77.415 -68.5848
1.138000 77.736 -68.2422
1.150000 77.950 -67.7653
1.172000 78.338 -66.4299
1.180000 78.479 -65.8108
1.206000 78.931 -63.3776
1.220000 79.172 -61.8390
1.241000 79.529 -59.2952
1.250000 79.680 -58.1354
1.265000 79.929 -56.1325
1.280000 80.174 -54.0674
1.315000 80.731 -49.1692
1.320000 80.809 -48.4761
1.340000 81.115 -45.7629
1.360000 81.411 -43.1960
1.380000 81.698 -40.8438
1.400000 81.975 -38.7749
1.430000 82.370 -36.3525
1.450000 82.619 -35.2914
1.475000 82.911 -34.6807
1.500000 83.183 -34.6749
1.525000 83.434 -35.1563
1.550000 83.666 -36.0547
1.575000 83.883 -37.3001
1.600000 84.084 -38.8224
1.625000 84.272 -40.5513
1.650000 84.449 -42.4168
1.675000 84.616 -44.3487
1.700000 84.776 -46.2769
1.725000 84.930 -48.1313
1.750000 85.079 -49.8418
1.775000 85.226 -51.3382
1.800000 85.372 -52.5504
1.825000 85.520 -53.4082
1.850000 85.666 -53.9059
1.875000 85.803 -54.1775
1.900000 85.931 -54.2581
1.925000 86.052 -54.1772
1.950000 86.166 -53.9641
1.975000 86.275 -53.6482
2.000000 86.379 -53.2592
2.030000 86.500 -52.7370
2.060000 86.618 -52.2026
2.090000 86.734 -51.7069
2.120000 86.851 -51.3006
2.140000 86.930 -51.1046
2.180000 87.093 -50.9600
2.200000 87.179 -51.0410
2.240000 87.352 -51.4091
2.270000 87.482 -51.8095
2.300000 87.613 -52.2994
2.330000 87.743 -52.8635
2.360000 87.873 -53.4867
2.400000 88.044 -54.3828
2.430000 88.172 -55.0840
2.470000 88.340 -56.0287
2.500000 88.465 -56.7247
2.540000 88.628 -57.6070
2.580000 88.788 -58.4166
2.620000 88.944 -59.2366
2.650000 89.060 -59.8675
2.690000 89.213 -60.7203
2.720000 89.326 -61.3622
2.760000 89.474 -62.2118
2.800000 89.620 -63.0432
2.850000 89.800 -64.0391
2.900000 89.977 -64.9653
2.950000 90.150 -65.7945
3.000000 90.320 -66.4884
3.040000 90.453 -66.9689
3.070000 90.552 -67.3022
3.110000 90.682 -67.7301
3.150000 90.810 -68.1620
3.200000 90.967 -68.7452
3.250000 91.121 -69.4217
3.300000 91.273 -70.2402
3.350000 91.423 -71.2359
3.400000 91.569 -72.3740
3.450000 91.713 -73.5997
3.500000 91.854 -74.8585
3.550000 91.992 -76.0955
3.600000 92.128 -77.2562
3.650000 92.261 -78.2859
3.700000 92.392 -79.1444
3.750000 92.521 -79.8626
3.820000 92.696 -80.7174
3.870000 92.818 -81.2803
3.950000 93.009 -82.2204
4.000000 93.125 -82.9014
4.060000 93.262 -83.8783
4.120000 93.394 -85.0021
4.180000 93.524 -86.2148
4.250000 93.671 -87.6678
4.310000 93.793 -88.8821
4.370000 93.912 -90.0090
4.440000 94.048 -91.1586
4.500000 94.160 -92.0368
4.550000 94.251 -92.7200
4.620000 94.376 -93.6410
4.680000 94.479 -94.4334
4.750000 94.597 -95.4080
4.820000 94.712 -96.4629
4.870000 94.793 -97.2458
4.940000 94.902 -98.3614
5.000000 94.993 -99.3171
5.080000 95.110 -100.5591
5.150000 95.208 -101.5885
5.220000 95.302 -102.5739
5.300000 95.405 -103.6633
5.380000 95.503 -104.7237
5.450000 95.586 -105.6364
5.520000 95.665 -106.5419
5.600000 95.750 -107.5636
5.700000 95.851 -108.8141
5.800000 95.946 -110.0292
5.900000 96.037 -111.2038
6.000000 96.123 -112.3431
6.080000 96.189 -113.2267
6.150000 96.245 -113.9770
6.220000 96.300 -114.7036
6.300000 96.362 -115.4996
6.400000 96.436 -116.4463
6.500000 96.507 -117.3581
6.600000 96.577 -118.2546
6.700000 96.645 -119.1417
6.800000 96.712 -120.0086
6.900000 96.777 -120.8474
7.000000 96.842 -121.6490
7.100000 96.906 -122.4077
7.200000 96.970 -123.1389
7.300000 97.034 -123.8613
7.400000 97.097 -124.5851
7.500000 97.161 -125.3006
7.620000 97.237 -126.1488
7.750000 97.317 -127.0559
7.880000 97.396 -127.9479
8.000000 97.466 -128.7648
8.120000 97.534 -129.5836
8.250000 97.603 -130.4722
8.380000 97.669 -131.3517
8.500000 97.725 -132.1490
8.620000 97.777 -132.9363
8.750000 97.829 -133.7706
8.850000 97.868 -134.3945
9.000000 97.921 -135.3041
9.120000 97.961 -136.0113
9.250000 98.005 -136.7570
9.380000 98.048 -137.4809
9.500000 98.084 -138.1355
9.620000 98.119 -138.7782
9.750000 98.154 -139.4596
9.880000 98.183 -140.1349
10.000000 98.201 -140.7575
10.150000 98.217 -141.5299
10.300000 98.224 -142.2902
10.440000 98.223 -142.9876
10.600000 98.216 -143.7746
10.750000 98.210 -144.5045
10.900000 98.201 -145.2266
11.060000 98.192 -145.9915
11.200000 98.182 -146.6578
11.380000 98.169 -147.4947
11.500000 98.158 -148.0381
11.720000 98.136 -149.0014
11.800000 98.128 -149.3380
12.060000 98.104 -150.3902
12.200000 98.095 -150.9383
12.410000 98.083 -151.7367
12.500000 98.079 -152.0727
12.650000 98.072 -152.6223
12.800000 98.067 -153.1653
13.150000 98.057 -154.4209
13.200000 98.055 -154.6000
13.400000 98.052 -155.3174
13.600000 98.048 -156.0311
13.800000 98.043 -156.7403
14.000000 98.036 -157.4374
14.300000 98.020 -158.4538
14.500000 98.007 -159.1002
14.750000 97.989 -159.8701
15.000000 97.973 -160.5980
15.250000 97.963 -161.2963
15.500000 97.955 -161.9725
15.750000 97.951 -162.6322
16.000000 97.947 -163.2830
16.250000 97.942 -163.9293
16.500000 97.936 -164.5702
16.750000 97.928 -165.2009
17.000000 97.920 -165.8130
17.250000 97.911 -166.4043
17.500000 97.903 -166.9720
17.750000 97.895 -167.5242
18.000000 97.887 -168.0682
18.250000 97.880 -168.6125
18.500000 97.872 -169.1605
18.750000 97.864 -169.7092
19.000000 97.855 -170.2556
19.250000 97.844 -170.7936
19.500000 97.831 -171.3169
19.750000 97.817 -171.8211
20.000000 97.802 -172.3019
20.299999 97.786 -172.8530
20.600000 97.771 -173.3839
20.900000 97.759 -173.9058
21.200001 97.747 -174.4294
21.400000 97.739 -174.7817
21.799999 97.721 -175.4910
22.000000 97.710 -175.8453
22.400000 97.686 -176.5448
22.700001 97.664 -177.0529
23.000000 97.641 -177.5402
23.299999 97.619 -178.0051
23.600000 97.597 -178.4495
24.000000 97.571 -179.0194
24.299999 97.554 -179.4418
24.700001 97.535 179.9856
25.000000 97.521 179.5430
25.400000 97.499 178.9400
25.799999 97.472 178.3441
26.200001 97.442 177.7797
26.500000 97.419 177.3828
26.900000 97.390 176.8805
27.200001 97.371 176.5097
27.600000 97.347 176.0052
28.000000 97.321 175.4825
28.500000 97.284 174.8282
29.000000 97.241 174.2230
29.500000 97.199 173.6882
30.000000 97.162 173.1940
30.400000 97.137 172.7957
30.700001 97.118 172.4863
31.100000 97.093 172.0619
31.500000 97.066 171.6359
32.000000 97.029 171.1224
32.500000 96.991 170.6385
33.000000 96.955 170.1719
33.500000 96.918 169.7054
34.000000 96.881 169.2350
34.500000 96.842 168.7737
35.000000 96.802 168.3346
35.500000 96.764 167.9152
36.000000 96.727 167.5036
36.500000 96.690 167.0932
37.000000 96.650 166.6848
37.500000 96.609 166.2855
38.200001 96.551 165.7545
38.700001 96.512 165.3871
39.500000 96.451 164.7904
40.000000 96.412 164.4146
40.599998 96.364 163.9759
41.200001 96.315 163.5583
41.799999 96.267 163.1588
42.500000 96.214 162.7064
43.099998 96.170 162.3235
43.700001 96.126 161.9460
44.400002 96.072 161.5217
45.000000 96.025 161.1794
45.500000 95.986 160.9093
46.200001 95.933 160.5440
46.799999 95.887 160.2351
47.500000 95.833 159.8875
48.200001 95.783 159.5543
48.700001 95.749 159.3044
49.400002 95.701 158.9143
50.000000 95.653 158.5698
50.799999 95.585 158.1617
51.500000 95.530 157.8463
52.200001 95.480 157.5275
53.000000 95.423 157.1568
53.799999 95.365 156.8105
54.500000 95.314 156.5268
55.200001 95.263 156.2458
56.000000 95.203 155.9364
57.000000 95.126 155.5831
58.000000 95.044 155.2352
59.000000 94.956 154.9758
60.000000 94.891 154.7536
60.799999 94.850 154.4303
61.500000 94.802 154.1000
62.200001 94.746 153.8279
63.000000 94.684 153.5744
64.000000 94.611 153.2596
65.000000 94.536 152.9862
66.000000 94.467 152.7146
67.000000 94.389 152.4077
68.000000 94.302 152.1357
69.000000 94.208 151.8865
70.000000 94.112 151.7782
71.000000 94.053 151.7265
72.000000 94.012 151.4692
73.000000 93.956 151.1545
74.000000 93.896 150.9038
75.000000 93.833 150.6815
76.199997 93.752 150.4729
77.500000 93.659 150.3190
78.800003 93.571 150.2039
80.000000 93.492 150.0589
81.199997 93.413 149.9041
82.500000 93.333 149.7308
83.800003 93.256 149.5529
85.000000 93.189 149.4131
86.199997 93.123 149.2752
87.500000 93.052 149.1589
88.500000 93.000 149.0777
90.000000 92.921 148.9054
91.199997 92.853 148.7606
92.500000 92.779 148.6206
93.800003 92.705 148.5018
95.000000 92.637 148.4144
96.199997 92.568 148.3277
97.500000 92.492 148.2482
98.800003 92.418 148.2012
100.000000 92.354 148.1409
101.500000 92.276 148.0201
103.000000 92.196 147.9107
104.400002 92.122 147.8386
106.000000 92.037 147.7801
107.500000 91.958 147.7397
109.000000 91.879 147.7024
110.599998 91.794 147.6724
112.000000 91.722 147.6503
113.800003 91.634 147.6168
115.000000 91.575 147.5957
117.199997 91.469 147.5717
118.000000 91.430 147.5707
120.599998 91.302 147.5836
122.000000 91.228 147.6210
124.099998 91.120 147.7114
125.000000 91.076 147.7404
126.500000 91.005 147.7760
128.000000 90.937 147.8019
131.500000 90.794 147.8927
132.000000 90.775 147.9110
134.000000 90.701 147.9849
136.000000 90.630 148.0640
138.000000 90.558 148.1343
140.000000 90.482 148.2036
143.000000 90.370 148.3410
145.000000 90.298 148.4544
147.500000 90.212 148.5991
150.000000 90.125 148.7657
152.500000 90.034 148.9525
155.000000 89.940 149.1218
157.500000 89.848 149.2955
160.000000 89.763 149.4666
162.500000 89.680 149.6275
165.000000 89.595 149.8004
167.500000 89.512 149.9858
170.000000 89.428 150.1970
172.500000 89.350 150.4211
175.000000 89.273 150.6296
177.500000 89.195 150.8417
180.000000 89.117 151.0559
182.500000 89.045 151.2874
185.000000 88.977 151.5247
187.500000 88.908 151.7416
190.000000 88.834 151.9381
192.500000 88.762 152.1466
195.000000 88.697 152.3846
197.500000 88.630 152.6532
200.000000 88.563 152.9230
203.000000 88.487 153.2042
206.000000 88.415 153.4691
209.000000 88.344 153.7446
212.000000 88.277 154.0460
214.000000 88.234 154.2563
218.000000 88.144 154.6661
220.000000 88.098 154.8734
224.000000 88.010 155.2816
227.000000 87.942 155.5681
230.000000 87.873 155.8580
233.000000 87.809 156.1879
236.000000 87.749 156.5537
240.000000 87.671 157.0262
243.000000 87.616 157.3214
247.000000 87.545 157.7142
250.000000 87.490 158.0395
254.000000 87.418 158.4853
258.000000 87.348 158.9345
262.000000 87.281 159.3626
265.000000 87.232 159.6698
269.000000 87.167 160.0932
272.000000 87.120 160.4335
276.000000 87.058 160.9092
280.000000 87.000 161.3600
285.000000 86.935 161.8699
290.000000 86.874 162.3992
295.000000 86.811 162.9491
300.000000 86.743 163.5126
304.000000 86.691 163.9796
307.000000 86.655 164.3148
311.000000 86.610 164.7453
315.000000 86.566 165.1796
320.000000 86.512 165.7211
325.000000 86.457 166.2484
330.000000 86.403 166.7912
335.000000 86.353 167.3336
340.000000 86.304 167.8724
345.000000 86.256 168.4166
350.000000 86.208 168.9603
355.000000 86.160 169.5086
360.000000 86.112 170.0627
365.000000 86.068 170.6031
370.000000 86.025 171.1339
375.000000 85.983 171.6666
382.000000 85.926 172.4200
387.000000 85.884 172.9555
395.000000 85.816 173.8067
400.000000 85.776 174.3275
406.000000 85.731 174.9724
412.000000 85.687 175.6202
418.000000 85.646 176.2567
425.000000 85.600 177.0063
431.000000 85.561 177.6502
437.000000 85.522 178.2766
444.000000 85.480 179.0002
450.000000 85.445 179.6258
455.000000 85.415 -179.8530
462.000000 85.375 -179.1259
468.000000 85.342 -178.4958
475.000000 85.302 -177.7723
482.000000 85.264 -177.0560
487.000000 85.241 -176.5358
494.000000 85.209 -175.8107
500.000000 85.185 -175.1881
508.000000 85.154 -174.3517
515.000000 85.127 -173.6198
522.000000 85.102 -172.8871
530.000000 85.076 -172.0453
538.000000 85.052 -171.2028
545.000000 85.030 -170.4666
552.000000 85.009 -169.7231
560.000000 84.986 -168.8717
570.000000 84.961 -167.8225
580.000000 84.937 -166.7476
590.000000 84.915 -165.6524
600.000000 84.896 -164.5629
608.000000 84.882 -163.6877
615.000000 84.873 -162.9032
622.000000 84.867 -162.1003
630.000000 84.860 -161.1792
640.000000 84.852 -160.0348
650.000000 84.851 -158.8724
660.000000 84.857 -157.6865
670.000000 84.867 -156.5261
680.000000 84.886 -155.3821
690.000000 84.916 -154.2418
700.000000 84.954 -153.1278
710.000000 85.002 -152.0523
720.000000 85.054 -151.0357
730.000000 85.104 -150.1059
740.000000 85.147 -149.2388
750.000000 85.180 -148.3509
762.000000 85.215 -147.1523
775.000000 85.278 -145.7701
788.000000 85.371 -144.4552
800.000000 85.479 -143.4809
812.000000 85.571 -142.7290
825.000000 85.643 -141.9595
838.000000 85.700 -141.1510
850.000000 85.747 -140.3517
862.000000 85.793 -139.5252
875.000000 85.845 -138.6318
885.000000 85.884 -137.9391
900.000000 85.944 -136.8913
912.000000 85.998 -136.0463
925.000000 86.056 -135.1463
938.000000 86.115 -134.2590
950.000000 86.171 -133.4516
962.000000 86.230 -132.6544
975.000000 86.297 -131.7865
988.000000 86.371 -130.9268
1000.000000 86.439 -130.1629
1015.000000 86.513 -129.2770
1030.000000 86.590 -128.4292
1044.000000 86.667 -127.6523
1060.000000 86.757 -126.7851
1075.000000 86.841 -126.0000
1090.000000 86.927 -125.2560
1106.000000 87.027 -124.5009
1120.000000 87.117 -123.8656
1138.000000 87.232 -123.0905
1150.000000 87.306 -122.5888
1172.000000 87.440 -121.6899
1180.000000 87.488 -121.3703
1206.000000 87.639 -120.3812
1220.000000 87.721 -119.8806
1241.000000 87.843 -119.1434
1250.000000 87.894 -118.8268
1265.000000 87.979 -118.3096
1280.000000 88.060 -117.7995
1315.000000 88.238 -116.6349
1320.000000 88.262 -116.4734
1340.000000 88.352 -115.8294
1360.000000 88.420 -115.1743
1380.000000 88.484 -114.5154
1400.000000 88.559 -113.8682
1430.000000 88.676 -112.9012
1450.000000 88.755 -112.2608
1475.000000 88.852 -111.4548
1500.000000 88.947 -110.6539
1525.000000 89.037 -109.8563
1550.000000 89.119 -109.0598
1575.000000 89.197 -108.2660
1600.000000 89.273 -107.4855
1625.000000 89.348 -106.7177
1650.000000 89.423 -105.9443
1675.000000 89.498 -105.1788
1700.000000 89.571 -104.4241
1725.000000 89.639 -103.6677
1750.000000 89.708 -102.9211
1775.000000 89.776 -102.1810
1800.000000 89.842 -101.4446
1825.000000 89.903 -100.7228
1850.000000 89.962 -100.0099
1875.000000 90.019 -99.2987
1900.000000 90.075 -98.5912
1925.000000 90.129 -97.8842
1950.000000 90.180 -97.1767
1975.000000 90.231 -96.4636
2000.000000 90.278 -95.7552
2030.000000 90.322 -94.9182
2060.000000 90.361 -94.0534
2090.000000 90.401 -93.1480
2120.000000 90.441 -92.2086
2140.000000 90.468 -91.5567
2180.000000 90.524 -90.1655
2200.000000 90.553 -89.4224
2240.000000 90.631 -87.8640
2270.000000 90.717 -86.6957
2300.000000 90.823 -85.6190
2330.000000 90.937 -84.6845
2360.000000 91.041 -83.8833
2400.000000 91.165 -82.9877
2430.000000 91.245 -82.3756
2470.000000 91.325 -81.5529
2500.000000 91.371 -80.9069
2540.000000 91.421 -80.0027
2580.000000 91.466 -79.0442
2620.000000 91.508 -78.0360
2650.000000 91.539 -77.2526
2690.000000 91.578 -76.1580
2720.000000 91.604 -75.2978
2760.000000 91.636 -74.1153
2800.000000 91.669 -72.9007
2850.000000 91.719 -71.3493
2900.000000 91.778 -69.7740
2950.000000 91.842 -68.1919
3000.000000 91.909 -66.6122
3040.000000 91.965 -65.3789
3070.000000 92.007 -64.4635
3110.000000 92.065 -63.2396
3150.000000 92.126 -62.0108
3200.000000 92.206 -60.4748
3250.000000 92.290 -58.9449
3300.000000 92.373 -57.4166
3350.000000 92.462 -55.9065
3400.000000 92.561 -54.4217
3450.000000 92.670 -52.9527
3500.000000 92.785 -51.5030
3550.000000 92.904 -50.0890
3600.000000 93.025 -48.7298
3650.000000 93.148 -47.4480
3700.000000 93.267 -46.2495
3750.000000 93.376 -45.0967
3820.000000 93.507 -43.4542
3870.000000 93.591 -42.2063
3950.000000 93.732 -40.0531
4000.000000 93.839 -38.6712
4060.000000 93.993 -37.0925
4120.000000 94.160 -35.6961
4180.000000 94.317 -34.5083
4250.000000 94.458 -33.1802
4310.000000 94.559 -31.7354
4370.000000 94.718 -30.0025
4440.000000 95.009 -28.3709
4500.000000 95.273 -27.6758
4550.000000 95.466 -27.4737
4620.000000 95.682 -27.5073
4680.000000 95.822 -27.7092
4750.000000 95.935 -28.0804
4820.000000 95.996 -28.5636
4870.000000 96.006 -28.9480
4940.000000 95.971 -29.4996
5000.000000 95.898 -29.9307
5080.000000 95.739 -30.3554
5150.000000 95.545 -30.5461
5220.000000 95.308 -30.5084
5300.000000 95.002 -30.1312
5380.000000 94.669 -29.3744
5450.000000 94.363 -28.3999
5520.000000 94.051 -27.1550
5600.000000 93.688 -25.4139
5700.000000 93.224 -22.6660
5800.000000 92.803 -19.0653
5900.000000 92.493 -15.3103
6000.000000 92.194 -11.6260
6080.000000 91.959 -8.4451
6150.000000 91.771 -5.4649
6220.000000 91.604 -2.3129
6300.000000 91.446 1.4786
6400.000000 91.307 6.4591
6500.000000 91.245 11.6168
6600.000000 91.264 16.8352
6700.000000 91.365 21.9947
6800.000000 91.549 27.0030
6900.000000 91.830 31.7881
7000.000000 92.205 36.2918
7100.000000 92.656 40.4602
7200.000000 93.181 44.2113
7300.000000 93.776 47.4054
7400.000000 94.433 49.8904
7500.000000 95.140 51.5007
7620.000000 96.027 51.9821
7750.000000 96.929 50.3657
7880.000000 97.540 46.5054
8000.000000 97.741 41.5548
8120.000000 97.558 36.3464
8250.000000 96.960 31.7048
8380.000000 96.066 28.9939
8500.000000 95.098 28.4267
8620.000000 94.087 29.5729
8750.000000 93.016 32.4401
8850.000000 92.243 35.5817
9000.000000 91.203 41.4883
9120.000000 90.490 47.0003
9250.000000 89.846 53.5354
9380.000000 89.335 60.4922
9500.000000 88.978 67.1565
9620.000000 88.734 73.9390
9750.000000 88.597 81.3362
9880.000000 88.597 88.7244
10000.000000 88.723 95.4505
10150.000000 89.060 103.5696
10300.000000 89.617 111.1510
10440.000000 90.366 117.4273
10600.000000 91.533 123.0064
10750.000000 92.909 125.5931
10900.000000 94.376 123.8993
11060.000000 95.574 115.6261
11200.000000 95.849 103.8472
11380.000000 94.848 89.0716
11500.000000 93.496 83.1033
11720.000000 90.457 81.5367
11800.000000 89.368 83.1968
12060.000000 86.320 93.0724
12200.000000 84.999 100.0253
12410.000000 83.358 111.5077
12500.000000 82.761 116.6637
12650.000000 81.889 125.4322
12800.000000 81.153 134.3125
13150.000000 79.874 155.1381
13200.000000 79.736 158.1108
13400.000000 79.288 169.9493
13600.000000 79.010 -178.4100
13800.000000 78.900 -167.1232
14000.000000 78.943 -156.3265
14300.000000 79.246 -141.2846
14500.000000 79.577 -132.2576
14750.000000 80.087 -122.4279
15000.000000 80.610 -114.4039
15250.000000 81.047 -108.0363
15500.000000 81.353 -102.7214
15750.000000 81.521 -97.4233
16000.000000 81.618 -91.1317
16250.000000 81.874 -83.6792
16500.000000 82.542 -76.2898
16750.000000 83.698 -71.0238
17000.000000 85.199 -70.4850
17250.000000 86.520 -78.1133
17500.000000 86.766 -94.2437
17750.000000 85.362 -110.5362
18000.000000 82.580 -117.9589
18250.000000 79.225 -116.0396
18500.000000 75.999 -108.3862
18750.000000 73.157 -97.6948
19000.000000 70.648 -85.0938
19250.000000 68.350 -70.6406
19500.000000 66.231 -53.9279
19750.000000 64.510 -35.2455
20000.000000 63.376 -16.6400
20300.000000 62.295 2.7943
20600.000000 61.040 21.3717
20900.000000 59.856 42.1893
21200.000000 59.250 65.0963
21400.000000 59.326 80.1315
21800.000000 60.412 103.4101
22000.000000 61.085 100.8615
22400.000000 61.290 160.4234
22700.000000 59.019 -144.2749
23000.000000 53.904 66.3481
23300.000000 47.356 -32.6484
23600.000000 43.129 112.3477
24000.000000 41.762 147.4805
