* Measurement data measured by REW V5.20.13
* Source: Headset (DS by VECLAN.COM), MICROPHONE (Master Volume), L, volume: 0.720. Timing signal peak level -21.3 dBFS, measurement signal peak level -18.3 dBFS
* Format: 2M Log Swept Sine, 1 sweep at -12.0 dBFS using an acoustic timing reference
* Dated: Feb 15, 2024 2:45:18 PM
* REW Settings:
*  C-weighting compensation: Off
*  Target level: 75.0 dB
* Note: ; Delay -0.0687 ms (-24 mm, -0.93 in) using estimated IR delay relative to Acoustic reference played from HEADPHONE L with no timing offset
* Measurement: CCA Rhapsody DDDD L
* Smoothing: 1/24 octave
* Frequency Step: 1/48 octave
* Start Frequency: 1.000 Hz
*
* Freq(Hz) SPL(dB) Phase(degrees)
1.000000 67.928 -19.3857
1.015000 68.198 -22.3721
1.030000 68.475 -25.3153
1.044000 68.738 -28.0114
1.060000 69.044 -31.0184
1.075000 69.335 -33.7516
1.090000 69.628 -36.3881
1.106000 69.946 -39.1025
1.120000 70.245 -41.5194
1.138000 70.659 -44.7084
1.150000 70.953 -46.8768
1.172000 71.522 -50.9193
1.180000 71.738 -52.4053
1.206000 72.468 -57.2673
1.220000 72.875 -59.8912
1.241000 73.500 -63.8104
1.250000 73.772 -65.4776
1.265000 74.228 -68.2307
1.280000 74.687 -70.9425
1.315000 75.754 -77.0478
1.320000 75.905 -77.8886
1.340000 76.501 -81.1571
1.360000 77.081 -84.2547
1.380000 77.640 -87.1552
1.400000 78.173 -89.8328
1.430000 78.913 -93.3742
1.450000 79.357 -95.3805
1.475000 79.852 -97.4399
1.500000 80.301 -98.9561
1.525000 80.712 -99.9779
1.550000 81.089 -100.5690
1.575000 81.435 -100.7930
1.600000 81.754 -100.7139
1.625000 82.049 -100.3954
1.650000 82.324 -99.9012
1.675000 82.582 -99.2951
1.700000 82.827 -98.6409
1.725000 83.062 -98.0024
1.750000 83.290 -97.4433
1.775000 83.516 -97.0274
1.800000 83.742 -96.8185
1.825000 83.972 -96.8803
1.850000 84.204 -97.1983
1.875000 84.423 -97.6109
1.900000 84.631 -98.0992
1.925000 84.828 -98.6511
1.950000 85.015 -99.2549
1.975000 85.193 -99.8988
2.000000 85.364 -100.5709
2.030000 85.560 -101.3980
2.060000 85.748 -102.2283
2.090000 85.930 -103.0412
2.120000 86.108 -103.8163
2.140000 86.224 -104.3020
2.180000 86.456 -105.1715
2.200000 86.572 -105.5434
2.240000 86.797 -106.2008
2.270000 86.958 -106.6406
2.300000 87.114 -107.0421
2.330000 87.263 -107.4117
2.360000 87.407 -107.7559
2.400000 87.593 -108.1867
2.430000 87.726 -108.4969
2.470000 87.899 -108.9060
2.500000 88.025 -109.2177
2.540000 88.189 -109.6521
2.580000 88.348 -110.1167
2.620000 88.501 -110.5752
2.650000 88.610 -110.9114
2.690000 88.750 -111.3538
2.720000 88.851 -111.6843
2.760000 88.980 -112.1275
2.800000 89.105 -112.5786
2.850000 89.253 -113.1621
2.900000 89.396 -113.7774
2.950000 89.534 -114.4381
3.000000 89.664 -115.1694
3.040000 89.762 -115.7928
3.070000 89.833 -116.2735
3.110000 89.923 -116.9202
3.150000 90.010 -117.5608
3.200000 90.114 -118.3311
3.250000 90.213 -119.0415
3.300000 90.309 -119.6644
3.350000 90.400 -120.1840
3.400000 90.485 -120.6208
3.450000 90.565 -121.0025
3.500000 90.641 -121.3566
3.550000 90.713 -121.7107
3.600000 90.782 -122.0925
3.650000 90.849 -122.5294
3.700000 90.913 -123.0414
3.750000 90.973 -123.6123
3.820000 91.052 -124.4689
3.870000 91.104 -125.0921
3.950000 91.184 -126.0486
4.000000 91.232 -126.5872
4.060000 91.288 -127.1407
4.120000 91.341 -127.6035
4.180000 91.392 -128.0064
4.250000 91.448 -128.4413
4.310000 91.494 -128.8186
4.370000 91.538 -129.2324
4.440000 91.589 -129.7888
4.500000 91.631 -130.3065
4.550000 91.665 -130.7548
4.620000 91.711 -131.3917
4.680000 91.748 -131.9313
4.750000 91.790 -132.5338
4.820000 91.831 -133.0947
4.870000 91.859 -133.4773
4.940000 91.897 -133.9991
5.000000 91.928 -134.4432
5.080000 91.966 -135.0473
5.150000 91.996 -135.6018
5.220000 92.024 -136.1793
5.300000 92.053 -136.8553
5.380000 92.078 -137.5368
5.450000 92.096 -138.1280
5.520000 92.111 -138.7077
5.600000 92.124 -139.3698
5.700000 92.133 -140.1913
5.800000 92.137 -140.9892
5.900000 92.134 -141.7486
6.000000 92.123 -142.4821
6.080000 92.110 -143.0459
6.150000 92.096 -143.5167
6.220000 92.081 -143.9615
6.300000 92.062 -144.4417
6.400000 92.032 -145.0051
6.500000 92.002 -145.5144
6.600000 91.975 -145.9554
6.700000 91.949 -146.3154
6.800000 91.925 -146.6081
6.900000 91.907 -146.8571
7.000000 91.899 -147.0802
7.100000 91.898 -147.2549
7.200000 91.905 -147.4004
7.300000 91.922 -147.5471
7.400000 91.950 -147.7027
7.500000 91.988 -147.8464
7.620000 92.044 -148.0488
7.750000 92.113 -148.3606
7.880000 92.194 -148.7509
8.000000 92.272 -149.1831
8.120000 92.345 -149.6976
8.250000 92.424 -150.3526
8.380000 92.495 -151.0714
8.500000 92.546 -151.7738
8.620000 92.587 -152.5336
8.750000 92.618 -153.3553
8.850000 92.629 -153.9535
9.000000 92.626 -154.8393
9.120000 92.612 -155.4736
9.250000 92.588 -156.0380
9.380000 92.551 -156.5010
9.500000 92.515 -156.8143
9.620000 92.479 -156.9952
9.750000 92.439 -157.0563
9.880000 92.406 -157.0160
10.000000 92.384 -156.8820
10.150000 92.367 -156.5992
10.300000 92.371 -156.3138
10.440000 92.395 -156.0231
10.600000 92.442 -155.7534
10.750000 92.506 -155.6406
10.900000 92.586 -155.6398
11.060000 92.669 -155.8168
11.200000 92.743 -156.1290
11.380000 92.821 -156.6594
11.500000 92.859 -157.0985
11.720000 92.900 -157.9797
11.800000 92.903 -158.2928
12.060000 92.881 -159.2823
12.200000 92.852 -159.7103
12.410000 92.791 -160.2195
12.500000 92.765 -160.3711
12.650000 92.717 -160.5303
12.800000 92.672 -160.6112
13.150000 92.602 -160.5638
13.200000 92.596 -160.5546
13.400000 92.585 -160.5094
13.600000 92.583 -160.5219
13.800000 92.587 -160.6261
14.000000 92.584 -160.7977
14.300000 92.558 -161.1434
14.500000 92.519 -161.3449
14.750000 92.460 -161.4690
15.000000 92.397 -161.4137
15.250000 92.354 -161.1712
15.500000 92.343 -160.8468
15.750000 92.368 -160.5203
16.000000 92.425 -160.3361
16.250000 92.495 -160.3674
16.500000 92.565 -160.6175
16.750000 92.618 -161.0569
17.000000 92.646 -161.5565
17.250000 92.653 -162.0432
17.500000 92.641 -162.4250
17.750000 92.629 -162.6696
18.000000 92.624 -162.8094
18.250000 92.635 -162.8848
18.500000 92.662 -162.9945
18.750000 92.697 -163.1694
19.000000 92.731 -163.4366
19.250000 92.752 -163.7569
19.500000 92.758 -164.0576
19.750000 92.748 -164.2815
20.000000 92.730 -164.3458
20.299999 92.717 -164.2196
20.600000 92.731 -163.9320
20.900000 92.782 -163.6096
21.200001 92.864 -163.4106
21.400000 92.925 -163.4042
21.799999 93.040 -163.6828
22.000000 93.082 -163.9307
22.400000 93.123 -164.4933
22.700001 93.122 -164.8416
23.000000 93.107 -165.0451
23.299999 93.094 -165.1118
23.600000 93.092 -165.0934
24.000000 93.116 -165.0492
24.299999 93.149 -165.0842
24.700001 93.201 -165.2780
25.000000 93.239 -165.5330
25.400000 93.277 -165.9823
25.799999 93.298 -166.4907
26.200001 93.304 -166.9860
26.500000 93.302 -167.3135
26.900000 93.298 -167.6705
27.200001 93.300 -167.8864
27.600000 93.313 -168.1387
28.000000 93.334 -168.3923
28.500000 93.363 -168.7206
29.000000 93.389 -168.9908
29.500000 93.422 -169.1466
30.000000 93.474 -169.2488
30.400000 93.527 -169.3808
30.700001 93.567 -169.5359
31.100000 93.612 -169.8000
31.500000 93.643 -170.0776
32.000000 93.669 -170.3671
32.500000 93.692 -170.5878
33.000000 93.718 -170.8058
33.500000 93.741 -171.0604
34.000000 93.759 -171.3240
34.500000 93.777 -171.5627
35.000000 93.801 -171.7979
35.500000 93.831 -172.0857
36.000000 93.858 -172.4446
36.500000 93.878 -172.8323
37.000000 93.891 -173.1891
37.500000 93.906 -173.4988
38.200001 93.936 -173.9163
38.700001 93.960 -174.2462
39.500000 93.990 -174.7903
40.000000 94.003 -175.0878
40.599998 94.023 -175.3950
41.200001 94.052 -175.7031
41.799999 94.084 -176.0639
42.500000 94.116 -176.5466
43.099998 94.135 -176.9617
43.700001 94.151 -177.3448
44.400002 94.171 -177.7562
45.000000 94.189 -178.0919
45.500000 94.205 -178.3645
46.200001 94.229 -178.7534
46.799999 94.248 -179.1140
47.500000 94.263 -179.5462
48.200001 94.272 -179.9420
48.700001 94.280 179.7875
49.400002 94.294 179.3718
50.000000 94.303 178.9799
50.799999 94.312 178.4678
51.500000 94.327 178.0314
52.200001 94.349 177.5731
53.000000 94.377 177.0295
53.799999 94.403 176.4788
54.500000 94.417 176.0200
55.200001 94.422 175.6420
56.000000 94.425 175.3151
57.000000 94.425 174.9118
58.000000 94.397 174.4407
59.000000 94.352 173.9653
60.000000 94.293 173.2249
60.799999 94.195 172.6127
61.500000 94.104 172.4516
62.200001 94.083 172.5143
63.000000 94.145 172.2774
64.000000 94.225 171.3800
65.000000 94.264 170.5107
66.000000 94.304 169.8859
67.000000 94.349 169.3568
68.000000 94.380 168.8767
69.000000 94.396 168.4020
70.000000 94.386 167.8403
71.000000 94.344 167.3235
72.000000 94.303 166.8881
73.000000 94.273 166.3879
74.000000 94.241 165.8329
75.000000 94.211 165.2765
76.199997 94.168 164.4863
77.500000 94.051 163.7844
78.800003 93.947 163.8528
80.000000 93.973 163.9239
81.199997 94.033 163.2909
82.500000 94.033 162.3147
83.800003 94.019 161.5620
85.000000 94.015 160.9121
86.199997 94.008 160.3582
87.500000 94.007 159.7627
88.500000 93.987 159.2476
90.000000 93.925 158.6191
91.199997 93.881 158.1747
92.500000 93.832 157.6425
93.800003 93.788 157.1102
95.000000 93.752 156.5753
96.199997 93.710 156.0445
97.500000 93.662 155.5445
98.800003 93.615 155.0700
100.000000 93.566 154.6515
101.500000 93.503 154.1595
103.000000 93.437 153.6590
104.400002 93.382 153.2218
106.000000 93.332 152.6484
107.500000 93.277 152.0794
109.000000 93.215 151.5950
110.599998 93.153 151.1385
112.000000 93.095 150.7221
113.800003 93.008 150.1799
115.000000 92.944 149.8316
117.199997 92.832 149.2126
118.000000 92.794 148.9777
120.599998 92.689 148.2420
122.000000 92.640 147.8199
124.099998 92.556 147.2698
125.000000 92.521 147.0590
126.500000 92.455 146.6625
128.000000 92.370 146.2789
131.500000 92.177 145.6440
132.000000 92.155 145.5434
134.000000 92.073 145.0743
136.000000 91.990 144.5741
138.000000 91.909 144.1364
140.000000 91.832 143.7205
143.000000 91.706 143.0962
145.000000 91.614 142.7082
147.500000 91.501 142.2356
150.000000 91.390 141.7714
152.500000 91.278 141.3440
155.000000 91.166 140.9570
157.500000 91.048 140.5789
160.000000 90.923 140.1966
162.500000 90.796 139.8482
165.000000 90.668 139.5348
167.500000 90.538 139.2861
170.000000 90.417 139.0640
172.500000 90.303 138.7942
175.000000 90.188 138.5023
177.500000 90.064 138.2346
180.000000 89.934 138.0283
182.500000 89.806 137.8843
185.000000 89.681 137.7681
187.500000 89.553 137.6561
190.000000 89.428 137.5286
192.500000 89.305 137.4017
195.000000 89.189 137.3153
197.500000 89.076 137.2304
200.000000 88.961 137.1649
203.000000 88.825 137.1323
206.000000 88.685 137.0715
209.000000 88.537 136.9889
212.000000 88.390 136.9777
214.000000 88.297 137.0351
218.000000 88.113 137.2313
220.000000 88.021 137.3417
224.000000 87.851 137.4604
227.000000 87.725 137.4367
230.000000 87.597 137.4110
233.000000 87.475 137.4442
236.000000 87.357 137.5352
240.000000 87.191 137.7492
243.000000 87.056 137.9189
247.000000 86.882 138.1403
250.000000 86.758 138.3586
254.000000 86.596 138.6898
258.000000 86.435 139.0015
262.000000 86.271 139.3381
265.000000 86.156 139.5952
269.000000 86.015 139.9472
272.000000 85.909 140.2360
276.000000 85.765 140.6617
280.000000 85.626 141.0781
285.000000 85.452 141.6102
290.000000 85.279 142.2580
295.000000 85.114 142.9363
300.000000 84.952 143.5422
304.000000 84.825 144.0038
307.000000 84.740 144.3724
311.000000 84.632 144.8908
315.000000 84.521 145.4250
320.000000 84.379 146.0610
325.000000 84.244 146.7452
330.000000 84.112 147.5311
335.000000 83.981 148.3358
340.000000 83.853 149.1218
345.000000 83.732 149.8856
350.000000 83.616 150.6636
355.000000 83.506 151.4629
360.000000 83.396 152.2846
365.000000 83.286 153.1118
370.000000 83.184 153.9354
375.000000 83.087 154.7647
382.000000 82.957 155.9305
387.000000 82.868 156.7950
395.000000 82.734 158.1613
400.000000 82.653 158.9944
406.000000 82.558 159.9956
412.000000 82.468 161.0277
418.000000 82.386 162.0767
425.000000 82.298 163.2862
431.000000 82.222 164.2947
437.000000 82.151 165.2755
444.000000 82.075 166.4563
450.000000 82.015 167.4902
455.000000 81.965 168.3433
462.000000 81.898 169.4979
468.000000 81.839 170.4864
475.000000 81.785 171.8027
482.000000 81.772 172.9274
487.000000 81.754 173.5775
494.000000 81.714 174.5988
500.000000 81.680 175.6387
508.000000 81.626 177.0123
515.000000 81.586 178.0355
522.000000 81.568 179.0969
530.000000 81.554 -179.6571
538.000000 81.548 -178.4324
545.000000 81.546 -177.3171
552.000000 81.531 -176.1511
560.000000 81.485 -174.9383
570.000000 81.479 -173.7049
580.000000 81.504 -172.2109
590.000000 81.510 -170.8477
600.000000 81.521 -169.5027
608.000000 81.528 -168.4160
615.000000 81.534 -167.4552
622.000000 81.542 -166.5071
630.000000 81.553 -165.4481
640.000000 81.569 -164.1398
650.000000 81.593 -162.8378
660.000000 81.621 -161.5701
670.000000 81.653 -160.3373
680.000000 81.689 -159.1126
690.000000 81.723 -157.8881
700.000000 81.759 -156.6654
710.000000 81.799 -155.4544
720.000000 81.844 -154.2750
730.000000 81.894 -153.1135
740.000000 81.948 -151.9549
750.000000 82.005 -150.8088
762.000000 82.075 -149.4506
775.000000 82.157 -148.0054
788.000000 82.243 -146.5935
800.000000 82.324 -145.3177
812.000000 82.408 -144.0589
825.000000 82.506 -142.7257
838.000000 82.613 -141.4604
850.000000 82.719 -140.3521
862.000000 82.825 -139.3041
875.000000 82.931 -138.2066
885.000000 83.007 -137.3552
900.000000 83.123 -136.0579
912.000000 83.235 -135.0195
925.000000 83.371 -133.9318
938.000000 83.508 -132.9145
950.000000 83.630 -132.0570
962.000000 83.751 -131.2552
975.000000 83.888 -130.4648
988.000000 84.031 -129.7732
1000.000000 84.163 -129.2402
1015.000000 84.316 -128.7326
1030.000000 84.437 -128.3573
1044.000000 84.508 -128.0457
1060.000000 84.544 -127.5241
1075.000000 84.574 -126.6992
1090.000000 84.641 -125.6274
1106.000000 84.764 -124.4315
1120.000000 84.897 -123.4704
1138.000000 85.083 -122.4202
1150.000000 85.209 -121.8282
1172.000000 85.438 -120.9111
1180.000000 85.518 -120.6151
1206.000000 85.763 -119.7247
1220.000000 85.893 -119.2896
1241.000000 86.088 -118.6955
1250.000000 86.170 -118.4537
1265.000000 86.301 -118.0584
1280.000000 86.426 -117.6705
1315.000000 86.697 -116.7908
1320.000000 86.734 -116.6680
1340.000000 86.873 -116.1862
1360.000000 86.989 -115.7078
1380.000000 87.101 -115.2284
1400.000000 87.225 -114.7531
1430.000000 87.417 -114.0460
1450.000000 87.543 -113.5772
1475.000000 87.693 -112.9788
1500.000000 87.836 -112.3689
1525.000000 87.974 -111.7514
1550.000000 88.113 -111.1451
1575.000000 88.254 -110.5530
1600.000000 88.390 -109.9475
1625.000000 88.519 -109.3309
1650.000000 88.647 -108.7152
1675.000000 88.779 -108.1153
1700.000000 88.913 -107.5186
1725.000000 89.047 -106.9222
1750.000000 89.181 -106.3410
1775.000000 89.313 -105.7639
1800.000000 89.444 -105.1924
1825.000000 89.575 -104.6331
1850.000000 89.708 -104.0830
1875.000000 89.844 -103.5505
1900.000000 89.981 -103.0321
1925.000000 90.118 -102.5227
1950.000000 90.256 -102.0310
1975.000000 90.394 -101.5582
2000.000000 90.532 -101.0954
2030.000000 90.695 -100.5449
2060.000000 90.857 -99.9883
2090.000000 91.025 -99.4234
2120.000000 91.204 -98.8598
2140.000000 91.327 -98.4741
2180.000000 91.583 -97.6849
2200.000000 91.719 -97.3286
2240.000000 92.012 -96.7860
2270.000000 92.239 -96.5604
2300.000000 92.460 -96.5064
2330.000000 92.667 -96.5936
2360.000000 92.858 -96.7734
2400.000000 93.094 -97.0990
2430.000000 93.260 -97.3829
2470.000000 93.465 -97.7866
2500.000000 93.605 -98.1008
2540.000000 93.780 -98.5399
2580.000000 93.944 -99.0083
2620.000000 94.100 -99.5102
2650.000000 94.207 -99.8972
2690.000000 94.338 -100.4185
2720.000000 94.428 -100.8226
2760.000000 94.539 -101.3789
2800.000000 94.639 -101.9416
2850.000000 94.747 -102.6540
2900.000000 94.838 -103.3794
2950.000000 94.912 -104.0933
3000.000000 94.970 -104.7899
3040.000000 95.006 -105.3319
3070.000000 95.025 -105.7222
3110.000000 95.042 -106.2209
3150.000000 95.051 -106.6990
3200.000000 95.058 -107.2683
3250.000000 95.058 -107.8019
3300.000000 95.053 -108.3016
3350.000000 95.038 -108.7683
3400.000000 95.016 -109.2122
3450.000000 94.991 -109.6566
3500.000000 94.966 -110.1184
3550.000000 94.934 -110.6092
3600.000000 94.888 -111.1179
3650.000000 94.823 -111.6309
3700.000000 94.739 -112.1312
3750.000000 94.632 -112.5801
3820.000000 94.438 -113.0059
3870.000000 94.271 -113.0774
3950.000000 93.992 -112.6987
4000.000000 93.836 -112.2027
4060.000000 93.684 -111.4733
4120.000000 93.567 -110.7251
4180.000000 93.472 -110.0409
4250.000000 93.373 -109.3628
4310.000000 93.283 -108.8635
4370.000000 93.177 -108.4093
4440.000000 93.036 -107.9111
4500.000000 92.909 -107.5044
4550.000000 92.797 -107.1748
4620.000000 92.631 -106.7236
4680.000000 92.477 -106.3339
4750.000000 92.282 -105.8425
4820.000000 92.066 -105.2658
4870.000000 91.900 -104.7789
4940.000000 91.656 -103.9741
5000.000000 91.442 -103.1660
5080.000000 91.157 -101.9209
5150.000000 90.908 -100.6773
5220.000000 90.656 -99.2861
5300.000000 90.374 -97.5408
5380.000000 90.114 -95.6642
5450.000000 89.904 -93.9340
5520.000000 89.711 -92.1354
5600.000000 89.501 -89.9992
5700.000000 89.245 -87.2013
5800.000000 89.003 -84.2742
5900.000000 88.789 -81.2354
6000.000000 88.603 -78.0853
6080.000000 88.470 -75.4856
6150.000000 88.365 -73.1533
6220.000000 88.273 -70.7702
6300.000000 88.188 -67.9936
6400.000000 88.111 -64.4485
6500.000000 88.069 -60.8263
6600.000000 88.065 -57.1345
6700.000000 88.103 -53.3902
6800.000000 88.201 -49.6355
6900.000000 88.386 -45.9282
7000.000000 88.661 -42.3341
7100.000000 89.011 -38.9487
7200.000000 89.430 -35.9054
7300.000000 89.911 -33.3549
7400.000000 90.443 -31.4422
7500.000000 91.010 -30.2890
7620.000000 91.704 -30.0207
7750.000000 92.398 -31.1869
7880.000000 92.878 -33.7873
8000.000000 93.087 -37.1431
8120.000000 93.055 -40.8778
8250.000000 92.749 -44.6401
8380.000000 92.211 -47.4855
8500.000000 91.580 -49.0064
8620.000000 90.876 -49.4249
8750.000000 90.076 -48.7528
8850.000000 89.461 -47.5675
9000.000000 88.573 -44.9018
9120.000000 87.908 -42.1253
9250.000000 87.241 -38.5895
9380.000000 86.634 -34.6041
9500.000000 86.127 -30.5949
9620.000000 85.667 -26.3198
9750.000000 85.231 -21.4377
9880.000000 84.864 -16.3359
10000.000000 84.588 -11.4614
10150.000000 84.321 -5.1658
10300.000000 84.140 1.2132
10440.000000 84.059 7.2018
10600.000000 84.063 14.1210
10750.000000 84.181 20.5545
10900.000000 84.425 26.8097
11060.000000 84.838 33.1298
11200.000000 85.334 38.1863
11380.000000 86.163 43.6729
11500.000000 86.833 46.4101
11720.000000 88.236 48.5319
11800.000000 88.758 48.0697
12060.000000 90.109 41.0761
12200.000000 90.369 34.4123
12410.000000 89.913 23.9153
12500.000000 89.430 20.2827
12650.000000 88.368 16.2021
12800.000000 87.139 14.6606
13150.000000 84.313 18.5301
13200.000000 83.947 19.6707
13400.000000 82.608 25.1718
13600.000000 81.466 31.7951
13800.000000 80.515 39.1942
14000.000000 79.747 47.1229
14300.000000 78.930 59.6155
14500.000000 78.616 68.0836
14750.000000 78.482 78.4409
15000.000000 78.619 88.1611
15250.000000 79.021 96.8408
15500.000000 79.703 104.0008
15750.000000 80.612 109.0985
16000.000000 81.613 111.5850
16250.000000 82.557 111.0676
16500.000000 83.289 107.4945
16750.000000 83.688 101.3374
17000.000000 83.696 93.0888
17250.000000 83.203 83.4441
17500.000000 82.208 73.8471
17750.000000 80.798 64.6616
18000.000000 78.974 55.8731
18250.000000 76.638 48.5029
18500.000000 73.824 44.1590
18750.000000 70.765 43.0368
19000.000000 67.615 44.5974
19250.000000 64.277 45.4876
19500.000000 60.439 15.7409
19750.000000 55.788 149.6836
20000.000000 50.497 91.5382
20300.000000 47.796 150.1238
20600.000000 49.785 81.2661
20900.000000 51.095 109.0850
21200.000000 51.521 -127.2759
21400.000000 51.499 -102.0439
21800.000000 50.551 68.3369
22000.000000 49.158 178.5752
22400.000000 43.612 -37.0859
22700.000000 37.924 176.1562
23000.000000 33.585 -175.0977
23300.000000 32.123 163.2656
23600.000000 31.856 171.0078
24000.000000 31.842 -80.2969
