* Measurement data measured by REW V5.20.13
* Source: Microphone (High Definition Audio Device), MICROPHONE (Master Volume), L, volume: 1.000. Timing signal peak level -13.4 dBFS, measurement signal peak level -10.4 dBFS
* Format: 512k Log Swept Sine, 1 sweep at -12.0 dBFS using an acoustic timing reference
* Dated: Feb 25, 2023 1:37:12 PM
* REW Settings:
*  C-weighting compensation: Off
*  Target level: 75.0 dB
* Note: ; Delay -0.0527 ms (-18 mm, -0.71 in) using estimated IR delay relative to Acoustic reference played from HEADPHONE L with no timing offset Clock adjustment: 119.8 ppm
* Measurement: CRA L
* Smoothing: 1/24 octave
* Frequency Step: 1/48 octave
* Start Frequency: 1.000 Hz
*
* Freq(Hz) SPL(dB) Phase(degrees)
1.000000 101.589 -10.9018
1.015000 101.696 -11.0043
1.030000 101.802 -11.1398
1.044000 101.900 -11.2976
1.060000 102.009 -11.5164
1.075000 102.111 -11.7607
1.090000 102.211 -12.0443
1.106000 102.316 -12.3941
1.120000 102.406 -12.7521
1.138000 102.520 -13.2822
1.150000 102.595 -13.6763
1.172000 102.729 -14.4757
1.180000 102.776 -14.7892
1.206000 102.927 -15.8826
1.220000 103.006 -16.5134
1.241000 103.122 -17.5063
1.250000 103.170 -17.9467
1.265000 103.249 -18.6975
1.280000 103.327 -19.4659
1.315000 103.500 -21.3056
1.320000 103.524 -21.5717
1.340000 103.617 -22.6385
1.360000 103.708 -23.7022
1.380000 103.795 -24.7539
1.400000 103.879 -25.7843
1.430000 103.998 -27.2700
1.450000 104.073 -28.2072
1.475000 104.163 -29.3089
1.500000 104.249 -30.3772
1.525000 104.332 -31.4272
1.550000 104.411 -32.4622
1.575000 104.485 -33.4857
1.600000 104.554 -34.5009
1.625000 104.618 -35.5113
1.650000 104.676 -36.5201
1.675000 104.728 -37.5308
1.700000 104.773 -38.5467
1.725000 104.810 -39.5711
1.750000 104.840 -40.6074
1.775000 104.862 -41.6590
1.800000 104.874 -42.7292
1.825000 104.878 -43.8213
1.850000 104.870 -44.9407
1.875000 104.848 -46.0908
1.900000 104.812 -47.2667
1.925000 104.765 -48.4633
1.950000 104.709 -49.6754
1.975000 104.645 -50.8980
2.000000 104.575 -52.1257
2.030000 104.486 -53.5988
2.060000 104.394 -55.0630
2.090000 104.302 -56.5097
2.120000 104.213 -57.9298
2.140000 104.157 -58.8574
2.180000 104.057 -60.6548
2.200000 104.015 -61.5195
2.240000 103.933 -63.2073
2.270000 103.872 -64.4469
2.300000 103.810 -65.6640
2.330000 103.749 -66.8588
2.360000 103.690 -68.0316
2.400000 103.617 -69.5612
2.430000 103.566 -70.6831
2.470000 103.507 -72.1454
2.500000 103.469 -73.2173
2.540000 103.429 -74.6135
2.580000 103.405 -75.9715
2.620000 103.396 -77.2840
2.650000 103.399 -78.2391
2.690000 103.413 -79.4767
2.720000 103.429 -80.3799
2.760000 103.457 -81.5538
2.800000 103.489 -82.6962
2.850000 103.531 -84.0854
2.900000 103.569 -85.4383
2.950000 103.600 -86.7600
3.000000 103.629 -88.0400
3.040000 103.652 -89.0322
3.070000 103.670 -89.7585
3.110000 103.695 -90.7034
3.150000 103.721 -91.6222
3.200000 103.757 -92.7351
3.250000 103.797 -93.8097
3.300000 103.843 -94.8474
3.350000 103.895 -95.8323
3.400000 103.952 -96.7611
3.450000 104.014 -97.6464
3.500000 104.079 -98.5008
3.550000 104.145 -99.3369
3.600000 104.211 -100.1672
3.650000 104.277 -101.0042
3.700000 104.342 -101.8516
3.750000 104.408 -102.6933
3.820000 104.502 -103.8586
3.870000 104.570 -104.6803
3.950000 104.677 -105.9738
4.000000 104.743 -106.7674
4.060000 104.820 -107.7019
4.120000 104.897 -108.6131
4.180000 104.972 -109.5059
4.250000 105.059 -110.5320
4.310000 105.132 -111.4049
4.370000 105.202 -112.2778
4.440000 105.281 -113.3017
4.500000 105.347 -114.1802
4.550000 105.401 -114.9104
4.620000 105.474 -115.9258
4.680000 105.533 -116.7866
4.750000 105.599 -117.7752
4.820000 105.661 -118.7458
4.870000 105.703 -119.4308
4.940000 105.758 -120.3781
5.000000 105.803 -121.1790
5.080000 105.859 -122.2309
5.150000 105.904 -123.1364
5.220000 105.946 -124.0314
5.300000 105.989 -125.0387
5.380000 106.028 -126.0243
5.450000 106.060 -126.8644
5.520000 106.090 -127.6804
5.600000 106.119 -128.5845
5.700000 106.152 -129.6767
5.800000 106.181 -130.7318
5.900000 106.210 -131.7535
6.000000 106.238 -132.7341
6.080000 106.258 -133.4944
6.150000 106.276 -134.1474
6.220000 106.293 -134.7931
6.300000 106.312 -135.5213
6.400000 106.336 -136.4113
6.500000 106.358 -137.2839
6.600000 106.381 -138.1441
6.700000 106.402 -138.9893
6.800000 106.423 -139.8197
6.900000 106.444 -140.6416
7.000000 106.464 -141.4601
7.100000 106.484 -142.2731
7.200000 106.504 -143.0797
7.300000 106.522 -143.8803
7.400000 106.538 -144.6769
7.500000 106.553 -145.4699
7.620000 106.569 -146.4093
7.750000 106.583 -147.4041
7.880000 106.593 -148.3793
8.000000 106.601 -149.2566
8.120000 106.609 -150.1047
8.250000 106.616 -150.9917
8.380000 106.624 -151.8524
8.500000 106.632 -152.6275
8.620000 106.640 -153.3815
8.750000 106.650 -154.1793
8.850000 106.658 -154.7826
9.000000 106.671 -155.6681
9.120000 106.682 -156.3594
9.250000 106.695 -157.0898
9.380000 106.711 -157.8013
9.500000 106.724 -158.4460
9.620000 106.736 -159.0814
9.750000 106.749 -159.7575
9.880000 106.756 -160.4234
10.000000 106.755 -161.0328
10.150000 106.747 -161.7825
10.300000 106.732 -162.5036
10.440000 106.710 -163.1500
10.600000 106.683 -163.8590
10.750000 106.660 -164.4910
10.900000 106.637 -165.0960
11.060000 106.615 -165.7293
11.200000 106.599 -166.2724
11.380000 106.578 -166.9531
11.500000 106.563 -167.3965
11.720000 106.534 -168.1848
11.800000 106.524 -168.4628
12.060000 106.487 -169.3339
12.200000 106.467 -169.7802
12.410000 106.434 -170.4153
12.500000 106.419 -170.6680
12.650000 106.392 -171.0643
12.800000 106.365 -171.4312
13.150000 106.305 -172.1719
13.200000 106.297 -172.2701
13.400000 106.271 -172.6402
13.600000 106.249 -173.0043
13.800000 106.233 -173.3713
14.000000 106.219 -173.7652
14.300000 106.196 -174.4143
14.500000 106.176 -174.8885
14.750000 106.143 -175.5057
15.000000 106.101 -176.1376
15.250000 106.053 -176.7568
15.500000 106.001 -177.3461
15.750000 105.949 -177.9017
16.000000 105.900 -178.4321
16.250000 105.856 -178.9740
16.500000 105.817 -179.5459
16.750000 105.780 179.8278
17.000000 105.741 179.1516
17.250000 105.696 178.4434
17.500000 105.643 177.7296
17.750000 105.582 177.0612
18.000000 105.516 176.4609
18.250000 105.450 175.9525
18.500000 105.393 175.5377
18.750000 105.349 175.1928
19.000000 105.323 174.8950
19.250000 105.315 174.5908
19.500000 105.319 174.2527
19.750000 105.333 173.8600
20.000000 105.347 173.4026
20.299999 105.359 172.7955
20.600000 105.360 172.1640
20.900000 105.350 171.5583
21.200001 105.332 171.0209
21.400000 105.318 170.7076
21.799999 105.286 170.1722
22.000000 105.271 169.9366
22.400000 105.242 169.4948
22.700001 105.220 169.1689
23.000000 105.196 168.8367
23.299999 105.168 168.4976
23.600000 105.136 168.1570
24.000000 105.088 167.7124
24.299999 105.049 167.3919
24.700001 104.998 166.9763
25.000000 104.958 166.6612
25.400000 104.906 166.2210
25.799999 104.854 165.7527
26.200001 104.802 165.2632
26.500000 104.764 164.8883
26.900000 104.713 164.3857
27.200001 104.676 164.0124
27.600000 104.631 163.5266
28.000000 104.591 163.0569
28.500000 104.548 162.4817
29.000000 104.509 161.9031
29.500000 104.468 161.3288
30.000000 104.422 160.7961
30.400000 104.384 160.4196
30.700001 104.356 160.1654
31.100000 104.320 159.8503
31.500000 104.284 159.5453
32.000000 104.237 159.1625
32.500000 104.183 158.7888
33.000000 104.126 158.4453
33.500000 104.069 158.1217
34.000000 104.016 157.7787
34.500000 103.964 157.3938
35.000000 103.909 156.9814
35.500000 103.853 156.5709
36.000000 103.798 156.1782
36.500000 103.748 155.8001
37.000000 103.700 155.4249
37.500000 103.652 155.0497
38.200001 103.584 154.5435
38.700001 103.535 154.2069
39.500000 103.457 153.7144
40.000000 103.407 153.4249
40.599998 103.346 153.0805
41.200001 103.280 152.7424
41.799999 103.213 152.4236
42.500000 103.140 152.0542
43.099998 103.080 151.7011
43.700001 103.018 151.3273
44.400002 102.943 150.9240
45.000000 102.884 150.6197
45.500000 102.838 150.3734
46.200001 102.778 150.0229
46.799999 102.728 149.7278
47.500000 102.673 149.3924
48.200001 102.614 149.0596
48.700001 102.566 148.8404
49.400002 102.497 148.5832
50.000000 102.439 148.3910
50.799999 102.363 148.1392
51.500000 102.297 147.9239
52.200001 102.232 147.7001
53.000000 102.159 147.4202
53.799999 102.086 147.1371
54.500000 102.022 146.8890
55.200001 101.960 146.6468
56.000000 101.891 146.3768
57.000000 101.805 146.0169
58.000000 101.721 145.7131
59.000000 101.659 145.3038
60.000000 101.562 144.7282
60.799999 101.456 144.5263
61.500000 101.385 144.5209
62.200001 101.337 144.4625
63.000000 101.280 144.3171
64.000000 101.194 144.1914
65.000000 101.109 144.0623
66.000000 101.023 143.8803
67.000000 100.933 143.6632
68.000000 100.839 143.4495
69.000000 100.753 143.2545
70.000000 100.678 143.0579
71.000000 100.607 142.8575
72.000000 100.532 142.6733
73.000000 100.454 142.5331
74.000000 100.381 142.4119
75.000000 100.309 142.2790
76.199997 100.217 142.1251
77.500000 100.123 141.9943
78.800003 100.034 141.8537
80.000000 99.946 141.7432
81.199997 99.857 141.6679
82.500000 99.754 141.5652
83.800003 99.649 141.4474
85.000000 99.560 141.3281
86.199997 99.477 141.2028
87.500000 99.396 141.0533
88.500000 99.335 140.9684
90.000000 99.248 140.9232
91.199997 99.177 140.9103
92.500000 99.095 140.8773
93.800003 99.007 140.8279
95.000000 98.927 140.7837
96.199997 98.852 140.7327
97.500000 98.778 140.6760
98.800003 98.703 140.6400
100.000000 98.633 140.6671
101.500000 98.544 140.7309
103.000000 98.445 140.7862
104.400002 98.352 140.7903
106.000000 98.256 140.7208
107.500000 98.172 140.6022
109.000000 98.091 140.5572
110.599998 98.009 140.6193
112.000000 97.940 140.7168
113.800003 97.848 140.7839
115.000000 97.781 140.7819
117.199997 97.644 140.7941
118.000000 97.593 140.8418
120.599998 97.453 141.1313
122.000000 97.395 141.1783
124.099998 97.288 141.1032
125.000000 97.243 141.0903
126.500000 97.179 141.0756
128.000000 97.121 141.0532
131.500000 96.962 141.2741
132.000000 96.940 141.3468
134.000000 96.858 141.5927
136.000000 96.776 141.6651
138.000000 96.683 141.6716
140.000000 96.602 141.7738
143.000000 96.507 142.0246
145.000000 96.430 142.1685
147.500000 96.310 142.3775
150.000000 96.206 142.6278
152.500000 96.139 142.8126
155.000000 96.071 142.9438
157.500000 95.975 143.0946
160.000000 95.874 143.3201
162.500000 95.789 143.5698
165.000000 95.712 143.7413
167.500000 95.623 143.8784
170.000000 95.533 144.1396
172.500000 95.454 144.4247
175.000000 95.382 144.6001
177.500000 95.316 144.7010
180.000000 95.252 144.8118
182.500000 95.165 145.0562
185.000000 95.071 145.4212
187.500000 94.985 145.7239
190.000000 94.911 145.9781
192.500000 94.842 146.2271
195.000000 94.772 146.4591
197.500000 94.703 146.6647
200.000000 94.634 146.8763
203.000000 94.551 147.1735
206.000000 94.470 147.4774
209.000000 94.393 147.7774
212.000000 94.321 148.0645
214.000000 94.274 148.2510
218.000000 94.181 148.6129
220.000000 94.138 148.7963
224.000000 94.056 149.1719
227.000000 93.992 149.4780
230.000000 93.931 149.7915
233.000000 93.873 150.1176
236.000000 93.811 150.4353
240.000000 93.719 150.8008
243.000000 93.661 151.1451
247.000000 93.598 151.5866
250.000000 93.546 151.8311
254.000000 93.480 152.1760
258.000000 93.416 152.6365
262.000000 93.344 153.0791
265.000000 93.289 153.3893
269.000000 93.218 153.7964
272.000000 93.168 154.1087
276.000000 93.104 154.5643
280.000000 93.041 155.0441
285.000000 92.955 155.4844
290.000000 92.884 155.8571
295.000000 92.837 156.3960
300.000000 92.783 156.9084
304.000000 92.736 157.2950
307.000000 92.697 157.6333
311.000000 92.641 158.0587
315.000000 92.593 158.3879
320.000000 92.549 158.8408
325.000000 92.510 159.3795
330.000000 92.453 159.9152
335.000000 92.394 160.3807
340.000000 92.350 160.8680
345.000000 92.294 161.3835
350.000000 92.230 161.8157
355.000000 92.182 162.2600
360.000000 92.135 162.8224
365.000000 92.090 163.2908
370.000000 92.056 163.7213
375.000000 92.019 164.1838
382.000000 91.960 164.8302
387.000000 91.917 165.3461
395.000000 91.845 166.1289
400.000000 91.804 166.5938
406.000000 91.761 167.1529
412.000000 91.721 167.7314
418.000000 91.680 168.3133
425.000000 91.638 168.9272
431.000000 91.602 169.4045
437.000000 91.566 169.9138
444.000000 91.521 170.5354
450.000000 91.487 171.0699
455.000000 91.467 171.4966
462.000000 91.437 172.0810
468.000000 91.405 172.6151
475.000000 91.367 173.2543
482.000000 91.333 173.8386
487.000000 91.310 174.2478
494.000000 91.278 174.8348
500.000000 91.255 175.3174
508.000000 91.226 175.9507
515.000000 91.205 176.5537
522.000000 91.180 177.1875
530.000000 91.151 177.8817
538.000000 91.129 178.5490
545.000000 91.109 179.1241
552.000000 91.089 179.7104
560.000000 91.069 -179.5894
570.000000 91.050 -178.7816
580.000000 91.025 -177.9541
590.000000 91.007 -177.1056
600.000000 90.998 -176.2694
608.000000 90.989 -175.5886
615.000000 90.976 -174.9921
622.000000 90.963 -174.4042
630.000000 90.950 -173.7632
640.000000 90.936 -172.9481
650.000000 90.927 -172.0811
660.000000 90.931 -171.1773
670.000000 90.934 -170.3330
680.000000 90.934 -169.5434
690.000000 90.940 -168.7138
700.000000 90.952 -167.8719
710.000000 90.960 -167.0316
720.000000 90.973 -166.1952
730.000000 91.000 -165.3983
740.000000 91.030 -164.6224
750.000000 91.056 -163.8401
762.000000 91.086 -162.9673
775.000000 91.114 -162.0601
788.000000 91.147 -161.0393
800.000000 91.189 -160.1072
812.000000 91.236 -159.2419
825.000000 91.287 -158.3422
838.000000 91.338 -157.4836
850.000000 91.391 -156.7281
862.000000 91.445 -155.9790
875.000000 91.506 -155.1810
885.000000 91.551 -154.5871
900.000000 91.619 -153.7436
912.000000 91.675 -153.0853
925.000000 91.742 -152.3734
938.000000 91.812 -151.6583
950.000000 91.875 -151.0179
962.000000 91.941 -150.4086
975.000000 92.011 -149.7819
988.000000 92.079 -149.2091
1000.000000 92.141 -148.7054
1015.000000 92.218 -148.0882
1030.000000 92.301 -147.4789
1044.000000 92.381 -146.9011
1060.000000 92.470 -146.2971
1075.000000 92.553 -145.7848
1090.000000 92.641 -145.2855
1106.000000 92.742 -144.8006
1120.000000 92.831 -144.4118
1138.000000 92.946 -143.9390
1150.000000 93.023 -143.6491
1172.000000 93.158 -143.1983
1180.000000 93.205 -143.0462
1206.000000 93.354 -142.5647
1220.000000 93.435 -142.3092
1241.000000 93.559 -141.9767
1250.000000 93.610 -141.8454
1265.000000 93.693 -141.6207
1280.000000 93.773 -141.3848
1315.000000 93.946 -140.8691
1320.000000 93.969 -140.8008
1340.000000 94.054 -140.5690
1360.000000 94.117 -140.3490
1380.000000 94.175 -140.1054
1400.000000 94.246 -139.8627
1430.000000 94.363 -139.4503
1450.000000 94.435 -139.1925
1475.000000 94.518 -138.8892
1500.000000 94.602 -138.5830
1525.000000 94.681 -138.2981
1550.000000 94.753 -137.9848
1575.000000 94.824 -137.6582
1600.000000 94.894 -137.3476
1625.000000 94.962 -137.0398
1650.000000 95.027 -136.7217
1675.000000 95.088 -136.4069
1700.000000 95.147 -136.0939
1725.000000 95.206 -135.7933
1750.000000 95.265 -135.4875
1775.000000 95.325 -135.1825
1800.000000 95.382 -134.8888
1825.000000 95.435 -134.5953
1850.000000 95.487 -134.2977
1875.000000 95.540 -134.0196
1900.000000 95.595 -133.7545
1925.000000 95.649 -133.4826
1950.000000 95.699 -133.1966
1975.000000 95.749 -132.9070
2000.000000 95.798 -132.6346
2030.000000 95.856 -132.3306
2060.000000 95.914 -132.0306
2090.000000 95.969 -131.7222
2120.000000 96.023 -131.4030
2140.000000 96.060 -131.1888
2180.000000 96.128 -130.7758
2200.000000 96.160 -130.5708
2240.000000 96.218 -130.1677
2270.000000 96.261 -129.8848
2300.000000 96.303 -129.6007
2330.000000 96.343 -129.3065
2360.000000 96.380 -129.0014
2400.000000 96.428 -128.5750
2430.000000 96.463 -128.2671
2470.000000 96.511 -127.8621
2500.000000 96.547 -127.5545
2540.000000 96.592 -127.1418
2580.000000 96.636 -126.7154
2620.000000 96.679 -126.2750
2650.000000 96.710 -125.9402
2690.000000 96.750 -125.4829
2720.000000 96.780 -125.1395
2760.000000 96.817 -124.6687
2800.000000 96.854 -124.1910
2850.000000 96.897 -123.5880
2900.000000 96.936 -122.9451
2950.000000 96.972 -122.2494
3000.000000 97.008 -121.4992
3040.000000 97.043 -120.8268
3070.000000 97.077 -120.2756
3110.000000 97.134 -119.5185
3150.000000 97.207 -118.7982
3200.000000 97.313 -118.0030
3250.000000 97.423 -117.3307
3300.000000 97.530 -116.7325
3350.000000 97.634 -116.1821
3400.000000 97.738 -115.6476
3450.000000 97.848 -115.1301
3500.000000 97.966 -114.6238
3550.000000 98.084 -114.1193
3600.000000 98.205 -113.6339
3650.000000 98.332 -113.1714
3700.000000 98.464 -112.7357
3750.000000 98.600 -112.3325
3820.000000 98.795 -111.8238
3870.000000 98.938 -111.5160
3950.000000 99.181 -111.1211
4000.000000 99.344 -110.9610
4060.000000 99.551 -110.9176
4120.000000 99.766 -111.0993
4180.000000 99.980 -111.5377
4250.000000 100.212 -112.3529
4310.000000 100.383 -113.3124
4370.000000 100.514 -114.5082
4440.000000 100.597 -116.1759
4500.000000 100.580 -117.7116
4550.000000 100.485 -118.7583
4620.000000 100.288 -119.0797
4680.000000 100.246 -118.2777
4750.000000 100.456 -117.8002
4820.000000 100.711 -119.0067
4870.000000 100.810 -120.5710
4940.000000 100.814 -123.0380
5000.000000 100.719 -125.0805
5080.000000 100.488 -127.4752
5150.000000 100.213 -129.1571
5220.000000 99.895 -130.3882
5300.000000 99.508 -131.2536
5380.000000 99.118 -131.6500
5450.000000 98.783 -131.7151
5520.000000 98.451 -131.5855
5600.000000 98.062 -131.2092
5700.000000 97.519 -130.1422
5800.000000 96.960 -127.1975
5900.000000 96.833 -123.0382
6000.000000 96.895 -121.7026
6080.000000 96.730 -121.0859
6150.000000 96.534 -119.8958
6220.000000 96.365 -118.2644
6300.000000 96.227 -116.1371
6400.000000 96.130 -113.3135
6500.000000 96.109 -110.4323
6600.000000 96.156 -107.5630
6700.000000 96.267 -104.7511
6800.000000 96.450 -102.0245
6900.000000 96.724 -99.4276
7000.000000 97.095 -97.0209
7100.000000 97.549 -94.8759
7200.000000 98.087 -93.0606
7300.000000 98.715 -91.7101
7400.000000 99.436 -91.0237
7500.000000 100.248 -91.2555
7620.000000 101.326 -93.2308
7750.000000 102.487 -98.2182
7880.000000 103.338 -106.7048
8000.000000 103.625 -117.0822
8120.000000 103.316 -128.0318
8250.000000 102.365 -137.9802
8380.000000 101.010 -144.4865
8500.000000 99.630 -147.5008
8620.000000 98.273 -148.2559
8750.000000 96.905 -147.2522
8850.000000 95.945 -145.5639
9000.000000 94.667 -141.9797
9120.000000 93.778 -138.4631
9250.000000 92.941 -134.2153
9380.000000 92.221 -129.6656
9500.000000 91.656 -125.2654
9620.000000 91.183 -120.7208
9750.000000 90.770 -115.7193
9880.000000 90.453 -110.7046
10000.000000 90.238 -106.0865
10150.000000 90.070 -100.3660
10300.000000 90.012 -94.7604
10440.000000 90.056 -89.7082
10600.000000 90.220 -84.1983
10750.000000 90.495 -79.3956
10900.000000 90.891 -75.1109
11060.000000 91.446 -71.3009
11200.000000 92.036 -68.8192
11380.000000 92.909 -67.2155
11500.000000 93.524 -67.4095
11720.000000 94.552 -71.0097
11800.000000 94.833 -73.3854
12060.000000 95.139 -83.6251
12200.000000 94.872 -89.4012
12410.000000 93.956 -96.3369
12500.000000 93.421 -98.2500
12650.000000 92.441 -99.8470
12800.000000 91.449 -99.6681
13150.000000 89.447 -94.4470
13200.000000 89.212 -93.3326
13400.000000 88.407 -88.3128
13600.000000 87.825 -82.6266
13800.000000 87.482 -76.5874
14000.000000 87.388 -70.5900
14300.000000 87.703 -62.5419
14500.000000 88.271 -58.8860
14750.000000 89.189 -60.3734
15000.000000 88.740 -65.0841
15250.000000 87.589 -49.4123
15500.000000 89.282 -39.4201
15750.000000 90.881 -44.0273
16000.000000 91.523 -53.6697
16250.000000 91.231 -62.3137
16500.000000 90.581 -66.8208
16750.000000 90.073 -69.5142
17000.000000 89.717 -71.8853
17250.000000 89.607 -74.8326
17500.000000 89.737 -80.8177
17750.000000 89.722 -92.7592
18000.000000 88.950 -115.9526
18250.000000 87.046 -179.9080
18500.000000 84.157 39.1605
18750.000000 80.833 -77.5004
19000.000000 77.587 -104.2532
19250.000000 75.075 -92.6874
19500.000000 74.098 -72.9767
19750.000000 74.832 -55.8895
20000.000000 76.111 -46.8281
20300.000000 77.038 -45.4860
20600.000000 76.956 -47.3337
20900.000000 76.177 -46.5046
21200.000000 75.119 -41.8494
21400.000000 74.403 -37.2164
21800.000000 73.220 -34.0936
22000.000000 72.790 -68.2147
22400.000000 71.788 142.1538
22700.000000 69.892 -26.6147
23000.000000 66.814 134.8184
23300.000000 64.694 140.7617
23600.000000 64.387 -119.2305
24000.000000 64.738 -71.7188
