* Measurement data measured by REW V5.20.13
* Source: Headset (DS by VECLAN.COM), MICROPHONE (Master Volume), L, volume: 0.720. Timing signal peak level -17.6 dBFS, measurement signal peak level -11.7 dBFS
* Format: 2M Log Swept Sine, 1 sweep at -12.0 dBFS using an acoustic timing reference
* Dated: Feb 15, 2024 2:51:18 PM
* REW Settings:
*  C-weighting compensation: Off
*  Target level: 75.0 dB
* Note: ; Delay -0.0701 ms (-24 mm, -0.95 in) using estimated IR delay relative to Acoustic reference played from HEADPHONE L with no timing offset
* Measurement: CCA Rhapsody DDUU L
* Smoothing: 1/24 octave
* Frequency Step: 1/48 octave
* Start Frequency: 1.000 Hz
*
* Freq(Hz) SPL(dB) Phase(degrees)
1.000000 77.274 -49.0647
1.015000 77.497 -50.4424
1.030000 77.719 -51.7766
1.044000 77.924 -52.9775
1.060000 78.155 -54.2917
1.075000 78.370 -55.4614
1.090000 78.581 -56.5649
1.106000 78.803 -57.6658
1.120000 78.999 -58.5794
1.138000 79.254 -59.6942
1.150000 79.425 -60.4020
1.172000 79.741 -61.6313
1.180000 79.856 -62.0577
1.206000 80.231 -63.3744
1.220000 80.433 -64.0431
1.241000 80.735 -64.9992
1.250000 80.864 -65.3932
1.265000 81.077 -66.0312
1.280000 81.288 -66.6481
1.315000 81.771 -68.0206
1.320000 81.839 -68.2104
1.340000 82.106 -68.9583
1.360000 82.365 -69.6925
1.380000 82.617 -70.4194
1.400000 82.859 -71.1454
1.430000 83.203 -72.2464
1.450000 83.418 -72.9979
1.475000 83.670 -73.9623
1.500000 83.903 -74.9130
1.525000 84.121 -75.8398
1.550000 84.324 -76.7439
1.575000 84.514 -77.6264
1.600000 84.691 -78.4884
1.625000 84.859 -79.3309
1.650000 85.016 -80.1552
1.675000 85.166 -80.9622
1.700000 85.309 -81.7532
1.725000 85.446 -82.5292
1.750000 85.580 -83.2914
1.775000 85.710 -84.0408
1.800000 85.839 -84.7786
1.825000 85.968 -85.5058
1.850000 86.095 -86.2196
1.875000 86.214 -86.9117
1.900000 86.325 -87.5835
1.925000 86.429 -88.2369
1.950000 86.527 -88.8736
1.975000 86.621 -89.4956
2.000000 86.710 -90.1046
2.030000 86.812 -90.8208
2.060000 86.912 -91.5241
2.090000 87.009 -92.2177
2.120000 87.106 -92.9047
2.140000 87.172 -93.3607
2.180000 87.306 -94.2717
2.200000 87.376 -94.7286
2.240000 87.517 -95.6341
2.270000 87.623 -96.3022
2.300000 87.729 -96.9614
2.330000 87.833 -97.6123
2.360000 87.937 -98.2552
2.400000 88.072 -99.1007
2.430000 88.172 -99.7267
2.470000 88.301 -100.5514
2.500000 88.395 -101.1630
2.540000 88.515 -101.9701
2.580000 88.628 -102.7686
2.620000 88.736 -103.5584
2.650000 88.814 -104.1445
2.690000 88.913 -104.9168
2.720000 88.984 -105.4887
2.760000 89.077 -106.2406
2.800000 89.165 -106.9795
2.850000 89.273 -107.8834
2.900000 89.378 -108.7636
2.950000 89.481 -109.6179
3.000000 89.580 -110.4432
3.040000 89.657 -111.0845
3.070000 89.712 -111.5556
3.110000 89.784 -112.1724
3.150000 89.854 -112.7780
3.200000 89.939 -113.5222
3.250000 90.021 -114.2558
3.300000 90.101 -114.9829
3.350000 90.177 -115.7029
3.400000 90.251 -116.4126
3.450000 90.321 -117.1104
3.500000 90.389 -117.7945
3.550000 90.454 -118.4633
3.600000 90.517 -119.1152
3.650000 90.579 -119.7484
3.700000 90.639 -120.3605
3.750000 90.696 -120.9502
3.820000 90.772 -121.7447
3.870000 90.824 -122.2947
3.950000 90.905 -123.1540
4.000000 90.954 -123.6835
4.060000 91.012 -124.3152
4.120000 91.069 -124.9367
4.180000 91.125 -125.5464
4.250000 91.187 -126.2429
4.310000 91.239 -126.8271
4.370000 91.290 -127.3992
4.440000 91.347 -128.0501
4.500000 91.393 -128.5914
4.550000 91.431 -129.0326
4.620000 91.482 -129.6386
4.680000 91.525 -130.1504
4.750000 91.574 -130.7424
4.820000 91.622 -131.3301
4.870000 91.656 -131.7449
4.940000 91.701 -132.3184
5.000000 91.740 -132.8035
5.080000 91.789 -133.4411
5.150000 91.829 -133.9904
5.220000 91.869 -134.5305
5.300000 91.911 -135.1374
5.380000 91.952 -135.7350
5.450000 91.986 -136.2517
5.520000 92.019 -136.7638
5.600000 92.054 -137.3415
5.700000 92.097 -138.0527
5.800000 92.136 -138.7536
5.900000 92.172 -139.4457
6.000000 92.204 -140.1295
6.080000 92.227 -140.6693
6.150000 92.246 -141.1355
6.220000 92.263 -141.5952
6.300000 92.279 -142.1144
6.400000 92.297 -142.7545
6.500000 92.311 -143.3792
6.600000 92.320 -143.9823
6.700000 92.325 -144.5690
6.800000 92.325 -145.1375
6.900000 92.322 -145.6764
7.000000 92.316 -146.1766
7.100000 92.305 -146.6462
7.200000 92.292 -147.0804
7.300000 92.277 -147.4702
7.400000 92.262 -147.8103
7.500000 92.245 -148.1052
7.620000 92.226 -148.4009
7.750000 92.212 -148.6477
7.880000 92.202 -148.8078
8.000000 92.200 -148.9089
8.120000 92.211 -148.9874
8.250000 92.234 -149.0234
8.380000 92.269 -149.0622
8.500000 92.312 -149.1382
8.620000 92.368 -149.2295
8.750000 92.435 -149.3864
8.850000 92.489 -149.5734
9.000000 92.578 -149.9424
9.120000 92.648 -150.3134
9.250000 92.716 -150.8021
9.380000 92.781 -151.3792
9.500000 92.829 -151.9492
9.620000 92.861 -152.5476
9.750000 92.881 -153.2380
9.880000 92.881 -153.8970
10.000000 92.860 -154.4622
10.150000 92.809 -155.1192
10.300000 92.745 -155.6268
10.440000 92.667 -155.9594
10.600000 92.577 -156.1888
10.750000 92.507 -156.2339
10.900000 92.449 -156.1452
11.060000 92.416 -156.0139
11.200000 92.413 -155.8413
11.380000 92.437 -155.7020
11.500000 92.472 -155.6835
11.720000 92.558 -155.8481
11.800000 92.591 -156.0058
12.060000 92.701 -156.8175
12.200000 92.741 -157.4316
12.410000 92.772 -158.5353
12.500000 92.768 -159.0081
12.650000 92.739 -159.8385
12.800000 92.686 -160.6046
13.150000 92.471 -161.8761
13.200000 92.436 -161.9764
13.400000 92.283 -162.1506
13.600000 92.145 -162.0054
13.800000 92.033 -161.5221
14.000000 91.967 -160.9068
14.300000 91.956 -159.8759
14.500000 92.001 -159.3398
14.750000 92.082 -158.9384
15.000000 92.176 -158.8676
15.250000 92.250 -159.0530
15.500000 92.298 -159.3362
15.750000 92.320 -159.6248
16.000000 92.324 -159.7998
16.250000 92.328 -159.8510
16.500000 92.339 -159.8590
16.750000 92.368 -159.8338
17.000000 92.408 -159.8716
17.250000 92.455 -159.9934
17.500000 92.501 -160.2182
17.750000 92.537 -160.5077
18.000000 92.563 -160.8339
18.250000 92.578 -161.1654
18.500000 92.587 -161.4783
18.750000 92.590 -161.7702
19.000000 92.590 -162.0381
19.250000 92.587 -162.2771
19.500000 92.580 -162.4697
19.750000 92.572 -162.6024
20.000000 92.567 -162.6525
20.299999 92.573 -162.6198
20.600000 92.600 -162.5306
20.900000 92.652 -162.4620
21.200001 92.724 -162.5062
21.400000 92.775 -162.6287
21.799999 92.868 -163.0731
22.000000 92.902 -163.3615
22.400000 92.942 -163.9526
22.700001 92.950 -164.3135
23.000000 92.950 -164.5516
23.299999 92.954 -164.6820
23.600000 92.966 -164.7446
24.000000 92.997 -164.7951
24.299999 93.029 -164.8505
24.700001 93.075 -164.9669
25.000000 93.109 -165.0859
25.400000 93.153 -165.2879
25.799999 93.192 -165.5505
26.200001 93.219 -165.8724
26.500000 93.228 -166.1294
26.900000 93.224 -166.4406
27.200001 93.213 -166.6097
27.600000 93.193 -166.7146
28.000000 93.184 -166.6864
28.500000 93.203 -166.5488
29.000000 93.265 -166.4664
29.500000 93.361 -166.6122
30.000000 93.461 -167.0950
30.400000 93.522 -167.7015
30.700001 93.546 -168.2267
31.100000 93.546 -168.8963
31.500000 93.518 -169.4017
32.000000 93.475 -169.6781
32.500000 93.463 -169.6203
33.000000 93.506 -169.4920
33.500000 93.588 -169.5497
34.000000 93.674 -169.8884
34.500000 93.734 -170.4085
35.000000 93.759 -170.9388
35.500000 93.761 -171.3422
36.000000 93.762 -171.5987
36.500000 93.775 -171.7962
37.000000 93.795 -172.0515
37.500000 93.809 -172.3862
38.200001 93.804 -172.7918
38.700001 93.808 -172.9413
39.500000 93.864 -173.2602
40.000000 93.902 -173.6923
40.599998 93.914 -174.2773
41.200001 93.912 -174.6378
41.799999 93.941 -174.8617
42.500000 94.004 -175.3547
43.099998 94.028 -175.9444
43.700001 94.022 -176.3554
44.400002 94.032 -176.5468
45.000000 94.071 -176.7261
45.500000 94.107 -176.9956
46.200001 94.141 -177.4838
46.799999 94.152 -177.9211
47.500000 94.145 -178.3916
48.200001 94.127 -178.7215
48.700001 94.124 -178.8726
49.400002 94.146 -179.1489
50.000000 94.166 -179.5858
50.799999 94.153 179.7477
51.500000 94.128 179.4134
52.200001 94.144 179.1896
53.000000 94.187 178.6785
53.799999 94.196 178.1036
54.500000 94.206 177.8352
55.200001 94.247 177.5885
56.000000 94.294 177.0944
57.000000 94.298 176.4545
58.000000 94.271 176.0237
59.000000 94.239 175.6791
60.000000 94.204 175.2205
60.799999 94.167 174.8202
61.500000 94.151 174.4980
62.200001 94.164 174.0499
63.000000 94.187 173.2522
64.000000 94.171 172.1737
65.000000 94.128 171.6838
66.000000 94.175 171.8336
67.000000 94.324 171.5738
68.000000 94.371 170.5646
69.000000 94.266 169.9746
70.000000 94.150 169.9907
71.000000 94.061 170.0999
72.000000 94.019 170.1955
73.000000 94.040 169.8771
74.000000 94.056 168.9999
75.000000 94.024 168.0609
76.199997 93.996 167.3119
77.500000 94.015 166.5028
78.800003 94.016 165.9260
80.000000 94.065 165.7319
81.199997 94.100 165.4297
82.500000 94.052 165.7100
83.800003 94.029 166.5781
85.000000 94.007 166.8688
86.199997 93.887 166.5034
87.500000 93.712 165.5393
88.500000 93.571 164.0141
90.000000 93.287 161.7212
91.199997 93.226 161.0018
92.500000 93.406 160.1846
93.800003 93.561 159.1506
95.000000 93.599 158.7542
96.199997 93.579 158.7393
97.500000 93.497 158.5804
98.800003 93.363 158.1378
100.000000 93.246 157.6047
101.500000 93.168 156.8417
103.000000 93.132 156.0896
104.400002 93.088 155.7014
106.000000 93.021 155.4758
107.500000 92.928 155.1068
109.000000 92.821 154.5840
110.599998 92.735 154.0215
112.000000 92.693 153.6051
113.800003 92.641 153.2507
115.000000 92.590 153.1080
117.199997 92.459 152.7703
118.000000 92.408 152.5904
120.599998 92.277 151.8482
122.000000 92.222 151.4556
124.099998 92.136 151.1266
125.000000 92.094 151.0376
126.500000 92.016 150.9059
128.000000 91.941 150.7246
131.500000 91.772 149.9551
132.000000 91.746 149.8486
134.000000 91.636 149.4732
136.000000 91.527 149.0839
138.000000 91.432 148.6551
140.000000 91.359 148.2798
143.000000 91.221 147.9808
145.000000 91.079 147.8772
147.500000 90.896 147.6920
150.000000 90.782 147.4171
152.500000 90.688 147.0684
155.000000 90.566 146.7396
157.500000 90.442 146.8071
160.000000 90.408 146.5876
162.500000 90.184 146.9648
165.000000 90.182 147.7570
167.500000 90.118 145.5553
170.000000 89.663 144.9655
172.500000 89.441 147.0164
175.000000 89.479 148.2001
177.500000 89.463 148.1738
180.000000 89.348 147.8848
182.500000 89.180 147.7271
185.000000 88.988 147.5593
187.500000 88.823 147.2885
190.000000 88.699 146.9287
192.500000 88.607 146.8375
195.000000 88.515 147.0140
197.500000 88.397 147.3002
200.000000 88.270 147.5272
203.000000 88.138 147.7565
206.000000 88.018 148.0772
209.000000 87.883 148.4621
212.000000 87.739 148.7572
214.000000 87.643 148.9380
218.000000 87.455 149.4662
220.000000 87.361 149.7924
224.000000 87.186 150.3037
227.000000 87.067 150.6391
230.000000 86.950 151.0873
233.000000 86.836 151.5959
236.000000 86.732 152.1531
240.000000 86.608 152.9370
243.000000 86.509 153.4816
247.000000 86.377 154.2513
250.000000 86.280 154.8288
254.000000 86.158 155.5497
258.000000 86.052 156.2585
262.000000 85.930 157.0493
265.000000 85.823 157.6584
269.000000 85.694 158.4102
272.000000 85.629 159.0214
276.000000 85.559 160.0164
280.000000 85.467 161.0182
285.000000 85.364 161.9478
290.000000 85.256 162.9822
295.000000 85.174 164.0295
300.000000 85.104 165.0739
304.000000 85.035 165.9618
307.000000 84.995 166.6865
311.000000 84.952 167.5490
315.000000 84.906 168.3999
320.000000 84.864 169.4508
325.000000 84.824 170.4092
330.000000 84.781 171.4879
335.000000 84.746 172.6520
340.000000 84.713 173.7951
345.000000 84.680 174.8557
350.000000 84.647 175.7738
355.000000 84.630 176.5912
360.000000 84.618 177.3996
365.000000 84.611 178.2575
370.000000 84.609 179.1791
375.000000 84.606 -179.9506
382.000000 84.604 -178.7983
387.000000 84.604 -177.9844
395.000000 84.614 -176.6019
400.000000 84.621 -175.6821
406.000000 84.611 -174.6411
412.000000 84.597 -173.7898
418.000000 84.611 -173.0089
425.000000 84.633 -172.0969
431.000000 84.645 -171.2188
437.000000 84.660 -170.3398
444.000000 84.680 -169.4042
450.000000 84.698 -168.6205
455.000000 84.714 -167.9619
462.000000 84.743 -167.0451
468.000000 84.770 -166.2788
475.000000 84.799 -165.3925
482.000000 84.833 -164.5612
487.000000 84.857 -164.0215
494.000000 84.880 -163.2993
500.000000 84.901 -162.6938
508.000000 84.934 -161.7978
515.000000 84.961 -160.9804
522.000000 84.989 -160.1991
530.000000 85.027 -159.3815
538.000000 85.065 -158.6476
545.000000 85.093 -157.9597
552.000000 85.123 -157.2144
560.000000 85.164 -156.3851
570.000000 85.205 -155.3712
580.000000 85.246 -154.3870
590.000000 85.290 -153.4115
600.000000 85.339 -152.4746
608.000000 85.380 -151.7248
615.000000 85.416 -151.0822
622.000000 85.447 -150.4432
630.000000 85.481 -149.6856
640.000000 85.524 -148.7394
650.000000 85.571 -147.8378
660.000000 85.614 -146.9308
670.000000 85.658 -145.9979
680.000000 85.709 -145.0932
690.000000 85.767 -144.2303
700.000000 85.829 -143.3776
710.000000 85.890 -142.5086
720.000000 85.948 -141.6325
730.000000 86.004 -140.7687
740.000000 86.059 -139.9070
750.000000 86.118 -139.0420
762.000000 86.193 -138.0139
775.000000 86.280 -136.9400
788.000000 86.369 -135.8777
800.000000 86.453 -134.8903
812.000000 86.538 -133.9224
825.000000 86.636 -132.9042
838.000000 86.738 -131.9239
850.000000 86.831 -131.0602
862.000000 86.922 -130.2156
875.000000 87.019 -129.3078
885.000000 87.097 -128.6119
900.000000 87.220 -127.5419
912.000000 87.328 -126.6765
925.000000 87.451 -125.7822
938.000000 87.577 -124.9497
950.000000 87.697 -124.2447
962.000000 87.820 -123.6065
975.000000 87.955 -122.9879
988.000000 88.090 -122.4520
1000.000000 88.211 -122.0325
1015.000000 88.350 -121.6181
1030.000000 88.466 -121.3413
1044.000000 88.545 -121.1347
1060.000000 88.598 -120.7359
1075.000000 88.635 -120.0592
1090.000000 88.698 -119.1626
1106.000000 88.812 -118.1687
1120.000000 88.939 -117.3746
1138.000000 89.121 -116.5135
1150.000000 89.244 -116.0280
1172.000000 89.460 -115.2609
1180.000000 89.536 -115.0122
1206.000000 89.771 -114.2816
1220.000000 89.896 -113.9319
1241.000000 90.082 -113.4494
1250.000000 90.160 -113.2532
1265.000000 90.286 -112.9360
1280.000000 90.407 -112.6182
1315.000000 90.681 -111.9249
1320.000000 90.719 -111.8322
1340.000000 90.856 -111.4321
1360.000000 90.970 -111.0203
1380.000000 91.084 -110.6462
1400.000000 91.210 -110.2611
1430.000000 91.395 -109.6618
1450.000000 91.513 -109.2676
1475.000000 91.652 -108.7471
1500.000000 91.790 -108.2269
1525.000000 91.933 -107.7142
1550.000000 92.072 -107.1975
1575.000000 92.205 -106.6646
1600.000000 92.334 -106.1269
1625.000000 92.464 -105.5929
1650.000000 92.597 -105.0713
1675.000000 92.728 -104.5463
1700.000000 92.854 -104.0165
1725.000000 92.979 -103.4892
1750.000000 93.107 -102.9754
1775.000000 93.237 -102.4695
1800.000000 93.369 -101.9702
1825.000000 93.502 -101.4818
1850.000000 93.633 -101.0010
1875.000000 93.762 -100.5190
1900.000000 93.890 -100.0477
1925.000000 94.020 -99.5909
1950.000000 94.150 -99.1443
1975.000000 94.279 -98.6968
2000.000000 94.409 -98.2528
2030.000000 94.567 -97.7197
2060.000000 94.730 -97.1722
2090.000000 94.902 -96.6232
2120.000000 95.081 -96.0622
2140.000000 95.208 -95.6998
2180.000000 95.481 -95.0778
2200.000000 95.625 -94.8504
2240.000000 95.916 -94.6161
2270.000000 96.125 -94.6115
2300.000000 96.319 -94.7096
2330.000000 96.498 -94.8673
2360.000000 96.664 -95.0630
2400.000000 96.870 -95.3518
2430.000000 97.016 -95.5826
2470.000000 97.199 -95.9135
2500.000000 97.327 -96.1699
2540.000000 97.487 -96.5213
2580.000000 97.640 -96.8896
2620.000000 97.788 -97.2708
2650.000000 97.895 -97.5661
2690.000000 98.031 -97.9680
2720.000000 98.128 -98.2877
2760.000000 98.250 -98.7575
2800.000000 98.361 -99.2708
2850.000000 98.483 -99.9726
2900.000000 98.582 -100.6948
2950.000000 98.661 -101.4088
3000.000000 98.725 -102.1028
3040.000000 98.766 -102.6394
3070.000000 98.790 -103.0260
3110.000000 98.815 -103.5219
3150.000000 98.832 -103.9982
3200.000000 98.844 -104.5636
3250.000000 98.847 -105.0937
3300.000000 98.842 -105.5917
3350.000000 98.830 -106.0611
3400.000000 98.814 -106.5025
3450.000000 98.797 -106.9287
3500.000000 98.781 -107.3587
3550.000000 98.760 -107.8117
3600.000000 98.728 -108.2941
3650.000000 98.677 -108.8013
3700.000000 98.606 -109.3307
3750.000000 98.508 -109.8310
3820.000000 98.327 -110.3649
3870.000000 98.178 -110.5527
3950.000000 97.907 -110.2991
4000.000000 97.749 -109.8499
4060.000000 97.593 -109.1355
4120.000000 97.473 -108.3641
4180.000000 97.380 -107.6480
4250.000000 97.289 -106.9440
4310.000000 97.211 -106.4504
4370.000000 97.122 -106.0486
4440.000000 97.003 -105.6654
4500.000000 96.890 -105.3885
4550.000000 96.786 -105.1791
4620.000000 96.617 -104.8860
4680.000000 96.448 -104.6046
4750.000000 96.227 -104.2001
4820.000000 95.986 -103.6563
4870.000000 95.808 -103.1577
4940.000000 95.554 -102.2829
5000.000000 95.337 -101.3707
5080.000000 95.052 -99.9489
5150.000000 94.812 -98.5549
5220.000000 94.584 -97.0661
5300.000000 94.338 -95.2763
5380.000000 94.109 -93.4178
5450.000000 93.922 -91.7362
5520.000000 93.742 -89.9955
5600.000000 93.541 -87.9254
5700.000000 93.301 -85.2125
5800.000000 93.081 -82.3664
5900.000000 92.881 -79.3894
6000.000000 92.703 -76.2893
6080.000000 92.580 -73.7294
6150.000000 92.493 -71.4428
6220.000000 92.425 -69.1194
6300.000000 92.368 -66.4290
6400.000000 92.322 -63.0179
6500.000000 92.305 -59.5754
6600.000000 92.325 -56.1231
6700.000000 92.392 -52.6963
6800.000000 92.515 -49.3252
6900.000000 92.704 -46.0453
7000.000000 92.963 -42.9076
7100.000000 93.282 -39.9777
7200.000000 93.660 -37.3564
7300.000000 94.089 -35.1716
7400.000000 94.554 -33.5442
7500.000000 95.040 -32.5760
7620.000000 95.634 -32.3993
7750.000000 96.230 -33.4911
7880.000000 96.625 -35.8164
8000.000000 96.769 -38.7417
8120.000000 96.695 -41.9295
8250.000000 96.381 -45.0849
8380.000000 95.874 -47.4445
8500.000000 95.289 -48.6867
8620.000000 94.631 -48.9946
8750.000000 93.870 -48.3390
8850.000000 93.276 -47.2001
9000.000000 92.407 -44.5772
9120.000000 91.747 -41.7866
9250.000000 91.079 -38.1873
9380.000000 90.468 -34.1018
9500.000000 89.965 -29.9878
9620.000000 89.523 -25.6051
9750.000000 89.115 -20.6175
9880.000000 88.783 -15.4388
10000.000000 88.536 -10.5280
10150.000000 88.308 -4.2577
10300.000000 88.177 2.1052
10440.000000 88.149 8.0767
10600.000000 88.235 14.8611
10750.000000 88.442 21.0676
10900.000000 88.783 26.9722
11060.000000 89.305 32.7250
11200.000000 89.905 37.0603
11380.000000 90.868 41.1732
11500.000000 91.608 42.5985
11720.000000 92.986 41.2983
11800.000000 93.416 39.3300
12060.000000 94.083 28.1453
12200.000000 93.816 21.0320
12410.000000 92.644 12.9282
12500.000000 91.948 10.9843
12650.000000 90.675 9.8077
12800.000000 89.387 10.7785
13150.000000 86.746 18.4353
13200.000000 86.420 19.9306
13400.000000 85.243 26.5364
13600.000000 84.252 33.8773
13800.000000 83.442 41.7105
14000.000000 82.809 49.8663
14300.000000 82.157 62.4299
14500.000000 81.921 70.8198
14750.000000 81.858 80.9978
15000.000000 82.054 90.4910
15250.000000 82.505 98.9313
15500.000000 83.223 105.8736
15750.000000 84.159 110.7938
16000.000000 85.188 113.1302
16250.000000 86.179 112.3548
16500.000000 86.975 108.1720
16750.000000 87.402 100.7724
17000.000000 87.305 90.8704
17250.000000 86.538 80.0293
17500.000000 85.127 70.5736
17750.000000 83.261 63.3110
18000.000000 81.062 57.9840
18250.000000 78.523 54.9436
18500.000000 75.691 55.2033
18750.000000 72.782 58.9613
19000.000000 69.948 66.2003
19250.000000 67.118 77.2825
19500.000000 64.088 92.7153
19750.000000 60.834 109.8514
20000.000000 57.732 107.6660
20300.000000 55.295 18.1876
20600.000000 54.648 -95.5736
20900.000000 54.590 -129.8462
21200.000000 54.417 166.3274
21400.000000 54.162 23.5430
21800.000000 52.854 -110.4436
22000.000000 51.308 -140.0737
22400.000000 45.509 -139.6973
22700.000000 39.415 -64.3770
23000.000000 34.087 -93.2285
23300.000000 32.048 163.6484
23600.000000 31.627 126.3438
24000.000000 31.099 37.2656
