* Measurement data measured by REW V5.20.13
* Source: Headset (DS by VECLAN.COM), MICROPHONE (Master Volume), L, volume: 0.720. Timing signal peak level -19.3 dBFS, measurement signal peak level -6.1 dBFS
* Format: 2M Log Swept Sine, 1 sweep at -12.0 dBFS using an acoustic timing reference
* Dated: Feb 24, 2024 1:55:22 PM
* REW Settings:
*  C-weighting compensation: Off
*  Target level: 75.0 dB
* Note: ; Delay -0.0628 ms (-22 mm, -0.85 in) using estimated IR delay relative to Acoustic reference played from HEADPHONE L with no timing offset
* Measurement: DUNU SA6 MK2 ON L
* Smoothing: 1/24 octave
* Frequency Step: 1/48 octave
* Start Frequency: 1.000 Hz
*
* Freq(Hz) SPL(dB) Phase(degrees)
1.000000 85.909 91.8617
1.015000 86.213 93.2084
1.030000 86.511 94.4268
1.044000 86.783 95.4410
1.060000 87.084 96.4461
1.075000 87.357 97.2305
1.090000 87.619 97.8538
1.106000 87.886 98.3226
1.120000 88.117 98.5156
1.138000 88.411 98.4735
1.150000 88.605 98.2781
1.172000 88.957 97.6069
1.180000 89.084 97.2715
1.206000 89.490 95.8887
1.220000 89.705 94.9827
1.241000 90.022 93.4519
1.250000 90.156 92.7434
1.265000 90.377 91.5068
1.280000 90.594 90.2164
1.315000 91.086 87.0974
1.320000 91.154 86.6493
1.340000 91.423 84.8773
1.360000 91.684 83.1700
1.380000 91.937 81.5702
1.400000 92.181 80.1207
1.430000 92.530 78.3220
1.450000 92.751 77.4356
1.475000 93.013 76.7336
1.500000 93.257 76.3357
1.525000 93.483 76.1693
1.550000 93.693 76.1995
1.575000 93.888 76.3916
1.600000 94.071 76.7107
1.625000 94.241 77.1220
1.650000 94.402 77.5907
1.675000 94.554 78.0819
1.700000 94.699 78.5609
1.725000 94.839 78.9927
1.750000 94.974 79.3427
1.775000 95.106 79.5759
1.800000 95.238 79.6576
1.825000 95.369 79.5529
1.850000 95.500 79.2569
1.875000 95.621 78.8322
1.900000 95.736 78.2975
1.925000 95.843 77.6690
1.950000 95.944 76.9627
1.975000 96.040 76.1948
2.000000 96.132 75.3814
2.030000 96.237 74.3680
2.060000 96.339 73.3401
2.090000 96.439 72.3258
2.120000 96.538 71.3527
2.140000 96.604 70.7407
2.180000 96.740 69.6421
2.200000 96.809 69.1715
2.240000 96.950 68.3263
2.270000 97.055 67.7454
2.300000 97.159 67.2027
2.330000 97.262 66.6918
2.360000 97.363 66.2061
2.400000 97.495 65.5867
2.430000 97.592 65.1348
2.470000 97.717 64.5368
2.500000 97.808 64.0834
2.540000 97.924 63.4599
2.580000 98.034 62.8061
2.620000 98.139 62.1575
2.650000 98.214 61.6783
2.690000 98.310 61.0447
2.720000 98.379 60.5709
2.760000 98.467 59.9367
2.800000 98.552 59.2952
2.850000 98.655 58.4751
2.900000 98.753 57.6255
2.950000 98.848 56.7328
3.000000 98.938 55.7680
3.040000 99.007 54.9571
3.070000 99.056 54.3363
3.110000 99.119 53.5040
3.150000 99.180 52.6807
3.200000 99.253 51.6875
3.250000 99.322 50.7623
3.300000 99.389 49.9351
3.350000 99.452 49.2230
3.400000 99.511 48.6034
3.450000 99.566 48.0469
3.500000 99.619 47.5236
3.550000 99.668 47.0038
3.600000 99.715 46.4580
3.650000 99.760 45.8565
3.700000 99.802 45.1773
3.750000 99.841 44.4372
3.820000 99.891 43.3449
3.870000 99.923 42.5573
3.950000 99.973 41.3510
4.000000 100.002 40.6683
4.060000 100.037 39.9571
4.120000 100.071 39.3506
4.180000 100.102 38.8158
4.250000 100.136 38.2398
4.310000 100.165 37.7505
4.370000 100.192 37.2314
4.440000 100.223 36.5586
4.500000 100.247 35.9470
4.550000 100.267 35.4261
4.620000 100.294 34.6975
4.680000 100.316 34.0904
4.750000 100.342 33.4242
4.820000 100.368 32.8181
4.870000 100.387 32.4142
4.940000 100.412 31.8753
5.000000 100.434 31.4263
5.080000 100.461 30.8259
5.150000 100.484 30.2817
5.220000 100.507 29.7263
5.300000 100.532 29.0885
5.380000 100.555 28.4534
5.450000 100.575 27.9050
5.520000 100.593 27.3670
5.600000 100.613 26.7609
5.700000 100.636 26.0150
5.800000 100.656 25.2832
5.900000 100.673 24.5670
6.000000 100.687 23.8664
6.080000 100.696 23.3165
6.150000 100.703 22.8423
6.220000 100.708 22.3743
6.300000 100.712 21.8433
6.400000 100.714 21.1866
6.500000 100.713 20.5499
6.600000 100.711 19.9463
6.700000 100.707 19.3800
6.800000 100.701 18.8437
6.900000 100.694 18.3311
7.000000 100.687 17.8364
7.100000 100.679 17.3611
7.200000 100.671 16.9076
7.300000 100.663 16.4773
7.400000 100.657 16.0739
7.500000 100.652 15.6979
7.620000 100.647 15.2698
7.750000 100.643 14.8196
7.880000 100.643 14.3897
8.000000 100.644 14.0060
8.120000 100.647 13.6289
8.250000 100.652 13.2321
8.380000 100.659 12.8409
8.500000 100.665 12.4788
8.620000 100.673 12.1181
8.750000 100.681 11.7294
8.850000 100.686 11.4315
9.000000 100.694 10.9853
9.120000 100.699 10.6335
9.250000 100.705 10.2612
9.380000 100.711 9.8961
9.500000 100.714 9.5664
9.620000 100.715 9.2438
9.750000 100.713 8.9021
9.880000 100.706 8.5705
10.000000 100.692 8.2738
10.150000 100.666 7.9152
10.300000 100.635 7.5731
10.440000 100.600 7.2705
10.600000 100.557 6.9376
10.750000 100.520 6.6354
10.900000 100.484 6.3415
11.060000 100.448 6.0233
11.200000 100.419 5.7407
11.380000 100.381 5.3804
11.500000 100.356 5.1428
11.720000 100.311 4.7148
11.800000 100.295 4.5631
12.060000 100.245 4.0819
12.200000 100.221 3.8292
12.410000 100.186 3.4598
12.500000 100.172 3.3068
12.650000 100.148 3.0591
12.800000 100.125 2.8181
13.150000 100.074 2.2783
13.200000 100.067 2.2023
13.400000 100.042 1.9010
13.600000 100.020 1.6009
13.800000 100.000 1.3012
14.000000 99.981 0.9986
14.300000 99.953 0.5400
14.500000 99.934 0.2359
14.750000 99.911 -0.1383
15.000000 99.889 -0.5044
15.250000 99.871 -0.8663
15.500000 99.855 -1.2217
15.750000 99.841 -1.5700
16.000000 99.827 -1.9116
16.250000 99.813 -2.2505
16.500000 99.799 -2.5871
16.750000 99.786 -2.9200
17.000000 99.774 -3.2466
17.250000 99.763 -3.5656
17.500000 99.752 -3.8756
17.750000 99.741 -4.1753
18.000000 99.731 -4.4655
18.250000 99.721 -4.7471
18.500000 99.713 -5.0215
18.750000 99.706 -5.2909
19.000000 99.701 -5.5573
19.250000 99.698 -5.8255
19.500000 99.697 -6.0968
19.750000 99.695 -6.3724
20.000000 99.694 -6.6525
20.299999 99.691 -6.9933
20.600000 99.687 -7.3367
20.900000 99.681 -7.6796
21.200001 99.674 -8.0195
21.400000 99.668 -8.2442
21.799999 99.655 -8.6896
22.000000 99.648 -8.9102
22.400000 99.631 -9.3433
22.700001 99.616 -9.6536
23.000000 99.601 -9.9447
23.299999 99.588 -10.2184
23.600000 99.578 -10.4845
24.000000 99.570 -10.8508
24.299999 99.566 -11.1515
24.700001 99.557 -11.5894
25.000000 99.545 -11.9243
25.400000 99.519 -12.3319
25.799999 99.492 -12.6517
26.200001 99.474 -12.8941
26.500000 99.472 -13.0689
26.900000 99.481 -13.3600
27.200001 99.490 -13.6520
27.600000 99.496 -14.1317
28.000000 99.484 -14.6462
28.500000 99.452 -15.2154
29.000000 99.418 -15.6575
29.500000 99.396 -16.0497
30.000000 99.380 -16.4857
30.400000 99.364 -16.8686
30.700001 99.348 -17.1548
31.100000 99.324 -17.5109
31.500000 99.301 -17.8371
32.000000 99.278 -18.2330
32.500000 99.258 -18.6483
33.000000 99.236 -19.0776
33.500000 99.212 -19.4927
34.000000 99.190 -19.8846
34.500000 99.173 -20.2738
35.000000 99.157 -20.6792
35.500000 99.140 -21.0970
36.000000 99.119 -21.5082
36.500000 99.096 -21.9003
37.000000 99.073 -22.2751
37.500000 99.051 -22.6407
38.200001 99.021 -23.1447
38.700001 99.000 -23.5000
39.500000 98.967 -24.0729
40.000000 98.947 -24.4454
40.599998 98.920 -24.9093
41.200001 98.888 -25.3725
41.799999 98.853 -25.8095
42.500000 98.812 -26.2800
43.099998 98.781 -26.6758
43.700001 98.752 -27.0848
44.400002 98.716 -27.5608
45.000000 98.685 -27.9511
45.500000 98.664 -28.2832
46.200001 98.634 -28.7986
46.799999 98.600 -29.2644
47.500000 98.552 -29.7376
48.200001 98.510 -30.1083
48.700001 98.489 -30.3569
49.400002 98.469 -30.7470
50.000000 98.452 -31.1249
50.799999 98.422 -31.6567
51.500000 98.388 -32.1088
52.200001 98.351 -32.5125
53.000000 98.313 -32.9386
53.799999 98.278 -33.4082
54.500000 98.240 -33.8466
55.200001 98.197 -34.2544
56.000000 98.151 -34.6906
57.000000 98.097 -35.2589
58.000000 98.041 -35.8019
59.000000 97.993 -36.3270
60.000000 97.947 -36.8913
60.799999 97.906 -37.3271
61.500000 97.870 -37.6904
62.200001 97.834 -38.0488
63.000000 97.791 -38.4388
64.000000 97.739 -38.9017
65.000000 97.687 -39.3914
66.000000 97.629 -39.8589
67.000000 97.577 -40.3055
68.000000 97.527 -40.8295
69.000000 97.464 -41.3492
70.000000 97.404 -41.8046
71.000000 97.352 -42.2778
72.000000 97.294 -42.7600
73.000000 97.233 -43.1576
74.000000 97.183 -43.4913
75.000000 97.138 -43.8922
76.199997 97.068 -44.4116
77.500000 96.975 -44.9325
78.800003 96.889 -45.2909
80.000000 96.845 -45.7164
81.199997 96.798 -46.2715
82.500000 96.745 -46.8418
83.800003 96.689 -47.2962
85.000000 96.643 -47.6892
86.199997 96.581 -48.0534
87.500000 96.521 -48.4687
88.500000 96.462 -48.9371
90.000000 96.353 -49.5918
91.199997 96.282 -50.0964
92.500000 96.218 -50.6697
93.800003 96.153 -51.1272
95.000000 96.104 -51.3400
96.199997 96.067 -51.5278
97.500000 96.013 -51.7809
98.800003 95.940 -52.1308
100.000000 95.859 -52.5121
101.500000 95.775 -53.0904
103.000000 95.703 -53.8185
104.400002 95.632 -54.3301
106.000000 95.559 -54.5253
107.500000 95.506 -54.5617
109.000000 95.430 -54.8819
110.599998 95.302 -55.4495
112.000000 95.206 -55.9316
113.800003 95.188 -56.5337
115.000000 95.233 -57.0493
117.199997 95.216 -58.0546
118.000000 95.159 -58.0711
120.599998 95.040 -57.6559
122.000000 94.976 -57.9002
124.099998 94.844 -58.3876
125.000000 94.783 -58.5666
126.500000 94.679 -58.8436
128.000000 94.575 -59.2824
131.500000 94.377 -61.1829
132.000000 94.364 -61.4544
134.000000 94.347 -62.1545
136.000000 94.325 -62.0914
138.000000 94.228 -61.6747
140.000000 94.071 -61.4656
143.000000 93.886 -62.0452
145.000000 93.815 -62.5962
147.500000 93.722 -62.7838
150.000000 93.664 -62.8922
152.500000 93.625 -63.7820
155.000000 93.501 -64.9839
157.500000 93.335 -65.5166
160.000000 93.284 -65.4189
162.500000 93.330 -65.5702
165.000000 93.294 -65.7075
167.500000 93.184 -65.7451
170.000000 93.045 -66.2419
172.500000 92.924 -66.9051
175.000000 92.861 -67.5203
177.500000 92.800 -67.9248
180.000000 92.750 -68.0163
182.500000 92.707 -68.1339
185.000000 92.636 -68.3773
187.500000 92.556 -68.7665
190.000000 92.503 -69.3189
192.500000 92.454 -69.9081
195.000000 92.370 -70.1899
197.500000 92.283 -70.2517
200.000000 92.224 -70.3889
203.000000 92.168 -70.6995
206.000000 92.081 -70.8415
209.000000 91.992 -71.0389
212.000000 91.892 -71.4697
214.000000 91.812 -71.7304
218.000000 91.697 -72.0230
220.000000 91.682 -72.1263
224.000000 91.689 -72.0866
227.000000 91.691 -72.2113
230.000000 91.640 -72.6465
233.000000 91.565 -72.9116
236.000000 91.494 -73.1007
240.000000 91.395 -73.6154
243.000000 91.358 -73.8882
247.000000 91.361 -74.1706
250.000000 91.325 -74.7008
254.000000 91.223 -75.2369
258.000000 91.136 -75.3033
262.000000 91.073 -75.4334
265.000000 91.011 -75.4562
269.000000 90.926 -75.5131
272.000000 90.890 -75.8648
276.000000 90.867 -76.3623
280.000000 90.824 -76.6349
285.000000 90.731 -76.8728
290.000000 90.651 -77.1437
295.000000 90.602 -77.4986
300.000000 90.548 -77.7609
304.000000 90.503 -78.0166
307.000000 90.472 -78.2233
311.000000 90.441 -78.4359
315.000000 90.416 -78.6128
320.000000 90.373 -78.8240
325.000000 90.324 -79.0534
330.000000 90.276 -79.3047
335.000000 90.236 -79.5365
340.000000 90.205 -79.7232
345.000000 90.179 -79.8942
350.000000 90.148 -80.0956
355.000000 90.109 -80.3358
360.000000 90.077 -80.5296
365.000000 90.049 -80.6813
370.000000 90.018 -80.8522
375.000000 89.988 -81.0468
382.000000 89.953 -81.3120
387.000000 89.929 -81.4774
395.000000 89.895 -81.6946
400.000000 89.876 -81.8616
406.000000 89.854 -82.0981
412.000000 89.834 -82.3164
418.000000 89.819 -82.4725
425.000000 89.802 -82.6367
431.000000 89.785 -82.8142
437.000000 89.769 -82.9651
444.000000 89.753 -83.1310
450.000000 89.743 -83.2637
455.000000 89.737 -83.3746
462.000000 89.731 -83.5590
468.000000 89.731 -83.6968
475.000000 89.734 -83.8545
482.000000 89.735 -84.0543
487.000000 89.734 -84.1814
494.000000 89.734 -84.3250
500.000000 89.737 -84.4376
508.000000 89.746 -84.6095
515.000000 89.756 -84.7691
522.000000 89.769 -84.8953
530.000000 89.781 -85.0269
538.000000 89.797 -85.1742
545.000000 89.813 -85.2931
552.000000 89.829 -85.4144
560.000000 89.847 -85.5517
570.000000 89.868 -85.7014
580.000000 89.894 -85.8311
590.000000 89.926 -85.9720
600.000000 89.968 -86.1076
608.000000 89.999 -86.2177
615.000000 90.026 -86.3065
622.000000 90.052 -86.3848
630.000000 90.081 -86.4823
640.000000 90.115 -86.6227
650.000000 90.145 -86.7394
660.000000 90.175 -86.8468
670.000000 90.207 -86.9668
680.000000 90.244 -87.0853
690.000000 90.287 -87.1973
700.000000 90.331 -87.2905
710.000000 90.374 -87.3484
720.000000 90.416 -87.4105
730.000000 90.457 -87.4897
740.000000 90.503 -87.5741
750.000000 90.552 -87.6271
762.000000 90.614 -87.6881
775.000000 90.681 -87.7700
788.000000 90.746 -87.8295
800.000000 90.808 -87.8870
812.000000 90.873 -87.9658
825.000000 90.948 -88.0255
838.000000 91.017 -88.0818
850.000000 91.082 -88.1402
862.000000 91.148 -88.1895
875.000000 91.221 -88.2548
885.000000 91.281 -88.3188
900.000000 91.377 -88.4130
912.000000 91.456 -88.5118
925.000000 91.540 -88.6490
938.000000 91.625 -88.7829
950.000000 91.703 -88.9158
962.000000 91.780 -89.0628
975.000000 91.859 -89.2329
988.000000 91.935 -89.4186
1000.000000 92.002 -89.6103
1015.000000 92.084 -89.8812
1030.000000 92.167 -90.1643
1044.000000 92.242 -90.4540
1060.000000 92.327 -90.7752
1075.000000 92.402 -91.0955
1090.000000 92.484 -91.4569
1106.000000 92.580 -91.9258
1120.000000 92.643 -92.3854
1138.000000 92.703 -92.8179
1150.000000 92.759 -93.0088
1172.000000 92.877 -93.4505
1180.000000 92.915 -93.6300
1206.000000 93.030 -94.2205
1220.000000 93.091 -94.5326
1241.000000 93.177 -94.9954
1250.000000 93.212 -95.1941
1265.000000 93.267 -95.5210
1280.000000 93.319 -95.8351
1315.000000 93.428 -96.5225
1320.000000 93.442 -96.6165
1340.000000 93.488 -96.9824
1360.000000 93.513 -97.3265
1380.000000 93.533 -97.6391
1400.000000 93.564 -97.9270
1430.000000 93.614 -98.3109
1450.000000 93.648 -98.5345
1475.000000 93.685 -98.7761
1500.000000 93.717 -98.9823
1525.000000 93.744 -99.1515
1550.000000 93.765 -99.2863
1575.000000 93.783 -99.3924
1600.000000 93.802 -99.4650
1625.000000 93.821 -99.5123
1650.000000 93.841 -99.5257
1675.000000 93.863 -99.5073
1700.000000 93.884 -99.4871
1725.000000 93.905 -99.4493
1750.000000 93.923 -99.3880
1775.000000 93.939 -99.3099
1800.000000 93.956 -99.2265
1825.000000 93.976 -99.1323
1850.000000 93.997 -99.0297
1875.000000 94.021 -98.9194
1900.000000 94.046 -98.7948
1925.000000 94.071 -98.6680
1950.000000 94.096 -98.5468
1975.000000 94.120 -98.4201
2000.000000 94.143 -98.2893
2030.000000 94.171 -98.1363
2060.000000 94.198 -97.9797
2090.000000 94.227 -97.8261
2120.000000 94.257 -97.6776
2140.000000 94.277 -97.5810
2180.000000 94.319 -97.3986
2200.000000 94.338 -97.3091
2240.000000 94.373 -97.1383
2270.000000 94.397 -97.0188
2300.000000 94.419 -96.8983
2330.000000 94.438 -96.7867
2360.000000 94.457 -96.6811
2400.000000 94.480 -96.5411
2430.000000 94.497 -96.4434
2470.000000 94.518 -96.3171
2500.000000 94.532 -96.2224
2540.000000 94.549 -96.0998
2580.000000 94.562 -95.9815
2620.000000 94.572 -95.8657
2650.000000 94.576 -95.7767
2690.000000 94.580 -95.6595
2720.000000 94.581 -95.5727
2760.000000 94.577 -95.4515
2800.000000 94.572 -95.3286
2850.000000 94.563 -95.1684
2900.000000 94.553 -95.0090
2950.000000 94.542 -94.8427
3000.000000 94.530 -94.6737
3040.000000 94.518 -94.5400
3070.000000 94.508 -94.4372
3110.000000 94.494 -94.3021
3150.000000 94.477 -94.1637
3200.000000 94.456 -93.9925
3250.000000 94.439 -93.8470
3300.000000 94.423 -93.7017
3350.000000 94.408 -93.5544
3400.000000 94.398 -93.4106
3450.000000 94.396 -93.2739
3500.000000 94.406 -93.1684
3550.000000 94.423 -93.1288
3600.000000 94.443 -93.1647
3650.000000 94.462 -93.2811
3700.000000 94.477 -93.4954
3750.000000 94.488 -93.8024
3820.000000 94.491 -94.3483
3870.000000 94.481 -94.8164
3950.000000 94.443 -95.6905
4000.000000 94.405 -96.3096
4060.000000 94.342 -97.1217
4120.000000 94.261 -97.9943
4180.000000 94.159 -98.9181
4250.000000 94.013 -100.0323
4310.000000 93.860 -100.9966
4370.000000 93.681 -101.9496
4440.000000 93.438 -103.0093
4500.000000 93.207 -103.8534
4550.000000 93.000 -104.4967
4620.000000 92.690 -105.2788
4680.000000 92.410 -105.8234
4750.000000 92.062 -106.2794
4820.000000 91.696 -106.5208
4870.000000 91.428 -106.5436
4940.000000 91.052 -106.3322
5000.000000 90.738 -105.9242
5080.000000 90.344 -105.0827
5150.000000 90.029 -104.1281
5220.000000 89.750 -103.0439
5300.000000 89.470 -101.6776
5380.000000 89.226 -100.1914
5450.000000 89.044 -98.7611
5520.000000 88.907 -97.2046
5600.000000 88.827 -95.4111
5700.000000 88.838 -93.7824
5800.000000 88.761 -93.0705
5900.000000 88.567 -91.3330
6000.000000 88.522 -88.7406
6080.000000 88.592 -86.7783
6150.000000 88.696 -85.2219
6220.000000 88.830 -83.7977
6300.000000 89.014 -82.3136
6400.000000 89.281 -80.6667
6500.000000 89.583 -79.2621
6600.000000 89.916 -78.1060
6700.000000 90.274 -77.2200
6800.000000 90.657 -76.6170
6900.000000 91.072 -76.3097
7000.000000 91.503 -76.2927
7100.000000 91.921 -76.5337
7200.000000 92.317 -77.0134
7300.000000 92.687 -77.6985
7400.000000 93.026 -78.5476
7500.000000 93.337 -79.5061
7620.000000 93.684 -80.7937
7750.000000 94.027 -82.4335
7880.000000 94.255 -84.3553
8000.000000 94.342 -86.3612
8120.000000 94.315 -88.4533
8250.000000 94.142 -90.5939
8380.000000 93.825 -92.2985
8500.000000 93.417 -93.2314
8620.000000 92.917 -93.4043
8750.000000 92.297 -92.6220
8850.000000 91.785 -91.2783
9000.000000 91.018 -88.0210
9120.000000 90.448 -84.4431
9250.000000 89.911 -79.7750
9380.000000 89.481 -74.4925
9500.000000 89.188 -69.3093
9620.000000 88.994 -64.0595
9750.000000 88.883 -58.5194
9880.000000 88.848 -53.2932
10000.000000 88.847 -48.7884
10150.000000 88.843 -43.5143
10300.000000 88.808 -38.4475
10440.000000 88.740 -33.7072
10600.000000 88.631 -28.0791
10750.000000 88.518 -22.4896
10900.000000 88.419 -16.5715
11060.000000 88.348 -9.9299
11200.000000 88.327 -3.8965
11380.000000 88.360 4.0807
11500.000000 88.422 9.5117
11720.000000 88.637 19.7412
11800.000000 88.764 23.5268
12060.000000 89.385 35.4445
12200.000000 89.819 41.3275
12410.000000 90.559 49.3178
12500.000000 90.907 52.4029
12650.000000 91.528 57.0033
12800.000000 92.183 60.8053
13150.000000 93.648 65.8831
13200.000000 93.827 66.1440
13400.000000 94.404 66.1567
13600.000000 94.698 65.0120
13800.000000 94.684 63.5951
14000.000000 94.395 62.7803
14300.000000 93.621 63.8178
14500.000000 93.025 66.0837
14750.000000 92.318 70.0623
15000.000000 91.689 74.3826
15250.000000 91.061 78.2471
15500.000000 90.276 81.7747
15750.000000 89.178 87.2031
16000.000000 88.086 97.1505
16250.000000 87.725 108.2939
16500.000000 87.735 115.9248
16750.000000 87.493 121.3506
17000.000000 86.971 127.1372
17250.000000 86.347 134.2026
17500.000000 85.791 142.4752
17750.000000 85.416 151.4796
18000.000000 85.301 160.5067
18250.000000 85.513 168.5844
18500.000000 86.087 174.3931
18750.000000 86.868 176.5120
19000.000000 87.391 174.6068
19250.000000 87.139 170.9345
19500.000000 85.902 169.4714
19750.000000 83.881 172.8572
20000.000000 81.451 -178.9815
20300.000000 78.440 -164.8420
20600.000000 75.646 -147.4583
20900.000000 73.112 -127.4974
21200.000000 70.905 -106.3078
21400.000000 69.646 -94.1427
21800.000000 67.121 -122.9260
22000.000000 65.237 99.8099
22400.000000 58.889 136.8743
22700.000000 51.966 -144.1665
23000.000000 43.782 -66.4385
23300.000000 35.950 -114.0781
23600.000000 32.162 68.0234
24000.000000 31.201 -74.3359
