* Measurement data measured by REW V5.20.13
* Source: Headset (DS by VECLAN.COM), MICROPHONE (Master Volume), L, volume: 0.720. Timing signal peak level -17.8 dBFS, measurement signal peak level -15.2 dBFS
* Format: 2M Log Swept Sine, 1 sweep at -12.0 dBFS using an acoustic timing reference
* Dated: Nov 24, 2023 1:46:32 PM
* REW Settings:
*  C-weighting compensation: Off
*  Target level: 75.0 dB
* Note: ; Delay -0.0621 ms (-21 mm, -0.84 in) using estimated IR delay relative to Acoustic reference played from HEADPHONE L with no timing offset
* Measurement: Intime Sora Light 2019 CP145 L
* Smoothing: 1/24 octave
* Frequency Step: 1/48 octave
* Start Frequency: 1.000 Hz
*
* Freq(Hz) SPL(dB) Phase(degrees)
1.000000 81.705 -94.4435
1.015000 82.472 -95.1138
1.030000 83.203 -95.7530
1.044000 83.845 -96.3189
1.060000 84.526 -96.9262
1.075000 85.104 -97.4545
1.090000 85.617 -97.9400
1.106000 86.090 -98.4068
1.120000 86.469 -98.7688
1.138000 86.918 -99.1739
1.150000 87.195 -99.4091
1.172000 87.660 -99.7746
1.180000 87.816 -99.8882
1.206000 88.278 -100.1949
1.220000 88.501 -100.3251
1.241000 88.805 -100.4826
1.250000 88.926 -100.5382
1.265000 89.114 -100.6179
1.280000 89.288 -100.6844
1.315000 89.650 -100.8082
1.320000 89.698 -100.8242
1.340000 89.880 -100.8895
1.360000 90.052 -100.9627
1.380000 90.218 -101.0524
1.400000 90.381 -101.1669
1.430000 90.631 -101.4035
1.450000 90.806 -101.6167
1.475000 91.036 -101.9556
1.500000 91.250 -102.3410
1.525000 91.441 -102.7587
1.550000 91.611 -103.2037
1.575000 91.763 -103.6707
1.600000 91.898 -104.1545
1.625000 92.020 -104.6500
1.650000 92.131 -105.1520
1.675000 92.233 -105.6553
1.700000 92.328 -106.1547
1.725000 92.419 -106.6450
1.750000 92.509 -107.1211
1.775000 92.599 -107.5778
1.800000 92.692 -108.0098
1.825000 92.791 -108.4121
1.850000 92.893 -108.7833
1.875000 92.990 -109.1315
1.900000 93.081 -109.4599
1.925000 93.169 -109.7713
1.950000 93.252 -110.0686
1.975000 93.332 -110.3546
2.000000 93.409 -110.6322
2.030000 93.499 -110.9582
2.060000 93.587 -111.2810
2.090000 93.674 -111.6056
2.120000 93.760 -111.9368
2.140000 93.819 -112.1637
2.180000 93.937 -112.6388
2.200000 93.998 -112.8898
2.240000 94.122 -113.4085
2.270000 94.215 -113.8067
2.300000 94.308 -114.2113
2.330000 94.400 -114.6209
2.360000 94.492 -115.0343
2.400000 94.613 -115.5892
2.430000 94.702 -116.0063
2.470000 94.817 -116.5613
2.500000 94.902 -116.9749
2.540000 95.010 -117.5205
2.580000 95.114 -118.0578
2.620000 95.213 -118.5956
2.650000 95.285 -119.0000
2.690000 95.377 -119.5387
2.720000 95.444 -119.9414
2.760000 95.531 -120.4750
2.800000 95.616 -121.0030
2.850000 95.718 -121.6522
2.900000 95.819 -122.2856
2.950000 95.917 -122.8995
3.000000 96.012 -123.4919
3.040000 96.085 -123.9530
3.070000 96.139 -124.2930
3.110000 96.209 -124.7405
3.150000 96.277 -125.1837
3.200000 96.360 -125.7354
3.250000 96.440 -126.2891
3.300000 96.518 -126.8496
3.350000 96.593 -127.4205
3.400000 96.664 -127.9984
3.450000 96.733 -128.5777
3.500000 96.800 -129.1529
3.550000 96.864 -129.7185
3.600000 96.927 -130.2688
3.650000 96.988 -130.7985
3.700000 97.046 -131.3032
3.750000 97.103 -131.7860
3.820000 97.178 -132.4338
3.870000 97.229 -132.8830
3.950000 97.309 -133.5909
4.000000 97.357 -134.0340
4.060000 97.414 -134.5728
4.120000 97.469 -135.1147
4.180000 97.523 -135.6549
4.250000 97.583 -136.2773
4.310000 97.633 -136.7993
4.370000 97.681 -137.3061
4.440000 97.737 -137.8732
4.500000 97.782 -138.3398
4.550000 97.819 -138.7180
4.620000 97.870 -139.2362
4.680000 97.912 -139.6744
4.750000 97.961 -140.1846
4.820000 98.009 -140.6957
4.870000 98.042 -141.0582
4.940000 98.089 -141.5611
5.000000 98.128 -141.9872
5.080000 98.179 -142.5472
5.150000 98.223 -143.0283
5.220000 98.266 -143.4994
5.300000 98.314 -144.0280
5.380000 98.361 -144.5496
5.450000 98.402 -145.0031
5.520000 98.442 -145.4561
5.600000 98.486 -145.9700
5.700000 98.541 -146.6070
5.800000 98.594 -147.2402
5.900000 98.645 -147.8718
6.000000 98.695 -148.5020
6.080000 98.733 -149.0038
6.150000 98.765 -149.4405
6.220000 98.796 -149.8742
6.300000 98.830 -150.3669
6.400000 98.870 -150.9789
6.500000 98.908 -151.5845
6.600000 98.944 -152.1814
6.700000 98.977 -152.7716
6.800000 99.008 -153.3545
6.900000 99.037 -153.9251
7.000000 99.064 -154.4791
7.100000 99.089 -155.0182
7.200000 99.112 -155.5432
7.300000 99.134 -156.0540
7.400000 99.156 -156.5499
7.500000 99.176 -157.0310
7.620000 99.200 -157.5906
7.750000 99.226 -158.1765
7.880000 99.252 -158.7383
8.000000 99.276 -159.2426
8.120000 99.300 -159.7397
8.250000 99.327 -160.2660
8.380000 99.354 -160.7849
8.500000 99.379 -161.2623
8.620000 99.403 -161.7361
8.750000 99.429 -162.2453
8.850000 99.448 -162.6348
9.000000 99.474 -163.2162
9.120000 99.494 -163.6741
9.250000 99.515 -164.1598
9.380000 99.535 -164.6366
9.500000 99.551 -165.0660
9.620000 99.564 -165.4831
9.750000 99.576 -165.9225
9.880000 99.582 -166.3508
10.000000 99.581 -166.7362
10.150000 99.573 -167.2050
10.300000 99.560 -167.6648
10.440000 99.543 -168.0817
10.600000 99.522 -168.5593
10.750000 99.505 -169.0184
10.900000 99.489 -169.4868
11.060000 99.471 -170.0123
11.200000 99.456 -170.4956
11.380000 99.431 -171.1272
11.500000 99.411 -171.5553
11.720000 99.369 -172.3324
11.800000 99.351 -172.6049
12.060000 99.287 -173.4553
12.200000 99.251 -173.8742
12.410000 99.195 -174.4514
12.500000 99.172 -174.6754
12.650000 99.132 -175.0157
12.800000 99.095 -175.3267
13.150000 99.021 -175.9592
13.200000 99.012 -176.0459
13.400000 98.982 -176.3827
13.600000 98.958 -176.7252
13.800000 98.939 -177.0820
14.000000 98.922 -177.4558
14.300000 98.897 -178.0444
14.500000 98.878 -178.4403
14.750000 98.855 -178.9263
15.000000 98.833 -179.3989
15.250000 98.818 -179.8666
15.500000 98.806 179.6580
15.750000 98.797 179.1671
16.000000 98.788 178.6498
16.250000 98.774 178.1095
16.500000 98.755 177.5563
16.750000 98.730 177.0097
17.000000 98.700 176.4949
17.250000 98.668 176.0200
17.500000 98.636 175.5934
17.750000 98.606 175.2046
18.000000 98.579 174.8409
18.250000 98.557 174.4876
18.500000 98.538 174.1287
18.750000 98.520 173.7619
19.000000 98.502 173.3851
19.250000 98.484 173.0051
19.500000 98.465 172.6293
19.750000 98.444 172.2631
20.000000 98.423 171.9106
20.299999 98.398 171.4997
20.600000 98.374 171.0942
20.900000 98.351 170.6844
21.200001 98.327 170.2634
21.400000 98.309 169.9779
21.799999 98.269 169.4078
22.000000 98.245 169.1319
22.400000 98.195 168.6188
22.700001 98.157 168.2786
23.000000 98.122 167.9744
23.299999 98.093 167.6872
23.600000 98.071 167.3942
24.000000 98.048 166.9623
24.299999 98.032 166.5970
24.700001 98.005 166.0701
25.000000 97.980 165.6716
25.400000 97.940 165.1704
25.799999 97.898 164.7172
26.200001 97.859 164.2945
26.500000 97.832 163.9820
26.900000 97.795 163.5652
27.200001 97.767 163.2595
27.600000 97.728 162.8743
28.000000 97.692 162.5153
28.500000 97.652 162.0671
29.000000 97.613 161.5729
29.500000 97.565 161.0422
30.000000 97.506 160.5384
30.400000 97.454 160.1831
30.700001 97.416 159.9410
31.100000 97.367 159.6318
31.500000 97.321 159.3244
32.000000 97.263 158.9422
32.500000 97.206 158.5754
33.000000 97.152 158.2244
33.500000 97.100 157.8777
34.000000 97.053 157.5312
34.500000 97.010 157.1840
35.000000 96.971 156.8219
35.500000 96.932 156.4276
36.000000 96.887 156.0115
36.500000 96.836 155.6107
37.000000 96.781 155.2516
37.500000 96.728 154.9247
38.200001 96.653 154.4818
38.700001 96.599 154.1772
39.500000 96.510 153.7371
40.000000 96.458 153.4759
40.599998 96.396 153.1581
41.200001 96.335 152.8456
41.799999 96.275 152.5425
42.500000 96.208 152.1783
43.099998 96.151 151.8563
43.700001 96.092 151.5505
44.400002 96.026 151.2175
45.000000 95.972 150.9330
45.500000 95.925 150.6963
46.200001 95.859 150.3814
46.799999 95.804 150.1264
47.500000 95.741 149.8338
48.200001 95.677 149.5529
48.700001 95.631 149.3626
49.400002 95.569 149.0999
50.000000 95.515 148.8728
50.799999 95.441 148.5821
51.500000 95.375 148.3445
52.200001 95.311 148.1131
53.000000 95.237 147.8578
53.799999 95.163 147.6185
54.500000 95.100 147.4094
55.200001 95.038 147.1903
56.000000 94.965 146.9422
57.000000 94.874 146.6613
58.000000 94.787 146.3921
59.000000 94.701 146.1360
60.000000 94.618 145.8964
60.799999 94.551 145.6968
61.500000 94.490 145.5314
62.200001 94.428 145.3949
63.000000 94.358 145.2755
64.000000 94.279 145.1485
65.000000 94.209 144.9714
66.000000 94.134 144.7146
67.000000 94.046 144.4697
68.000000 93.956 144.3029
69.000000 93.873 144.1751
70.000000 93.797 144.0371
71.000000 93.720 143.8757
72.000000 93.641 143.7165
73.000000 93.559 143.5872
74.000000 93.479 143.4875
75.000000 93.403 143.4034
76.199997 93.316 143.2811
77.500000 93.219 143.1512
78.800003 93.126 143.0325
80.000000 93.040 142.9136
81.199997 92.954 142.8150
82.500000 92.862 142.7274
83.800003 92.772 142.6453
85.000000 92.689 142.5975
86.199997 92.611 142.5674
87.500000 92.529 142.5335
88.500000 92.466 142.5050
90.000000 92.370 142.4554
91.199997 92.292 142.4307
92.500000 92.211 142.4032
93.800003 92.133 142.3569
95.000000 92.061 142.3152
96.199997 91.990 142.2952
97.500000 91.915 142.2901
98.800003 91.839 142.2949
100.000000 91.766 142.3120
101.500000 91.676 142.3500
103.000000 91.589 142.3707
104.400002 91.509 142.3698
106.000000 91.421 142.3780
107.500000 91.340 142.4250
109.000000 91.262 142.4816
110.599998 91.175 142.5196
112.000000 91.094 142.5728
113.800003 90.999 142.6808
115.000000 90.942 142.7288
117.199997 90.829 142.8292
118.000000 90.784 142.8920
120.599998 90.636 143.1559
122.000000 90.564 143.2327
124.099998 90.469 143.3458
125.000000 90.441 143.3984
126.500000 90.397 143.5029
128.000000 90.352 143.7343
131.500000 90.272 144.0510
132.000000 90.246 143.9961
134.000000 90.111 143.9189
136.000000 90.002 144.0307
138.000000 89.925 144.1522
140.000000 89.850 144.3387
143.000000 89.730 144.6765
145.000000 89.648 144.8470
147.500000 89.556 145.0468
150.000000 89.475 145.2581
152.500000 89.392 145.5038
155.000000 89.310 145.7401
157.500000 89.229 145.9747
160.000000 89.149 146.2162
162.500000 89.069 146.4312
165.000000 88.986 146.6380
167.500000 88.907 146.9030
170.000000 88.835 147.2037
172.500000 88.761 147.4935
175.000000 88.684 147.7556
177.500000 88.610 147.9986
180.000000 88.541 148.2517
182.500000 88.472 148.5289
185.000000 88.400 148.8192
187.500000 88.329 149.0954
190.000000 88.261 149.3591
192.500000 88.195 149.6259
195.000000 88.129 149.8980
197.500000 88.067 150.1675
200.000000 88.013 150.4176
203.000000 87.949 150.7371
206.000000 87.883 151.0921
209.000000 87.819 151.4321
212.000000 87.755 151.7866
214.000000 87.715 152.0247
218.000000 87.632 152.4507
220.000000 87.591 152.6635
224.000000 87.516 153.0923
227.000000 87.458 153.4417
230.000000 87.400 153.8164
233.000000 87.345 154.1775
236.000000 87.290 154.5131
240.000000 87.218 154.9404
243.000000 87.170 155.2516
247.000000 87.109 155.6800
250.000000 87.064 156.0120
254.000000 87.007 156.4667
258.000000 86.948 156.9645
262.000000 86.889 157.4435
265.000000 86.846 157.7471
269.000000 86.792 158.1438
272.000000 86.754 158.4616
276.000000 86.706 158.8928
280.000000 86.659 159.3420
285.000000 86.604 159.9380
290.000000 86.552 160.4794
295.000000 86.502 160.9708
300.000000 86.453 161.4657
304.000000 86.415 161.8871
307.000000 86.387 162.2266
311.000000 86.352 162.7033
315.000000 86.322 163.1682
320.000000 86.291 163.6633
325.000000 86.251 164.1288
330.000000 86.210 164.6867
335.000000 86.179 165.2561
340.000000 86.142 165.7511
345.000000 86.105 166.2137
350.000000 86.071 166.6763
355.000000 86.039 167.1476
360.000000 86.005 167.6385
365.000000 85.972 168.1562
370.000000 85.941 168.6653
375.000000 85.912 169.1453
382.000000 85.877 169.8196
387.000000 85.853 170.2980
395.000000 85.813 171.0336
400.000000 85.788 171.4922
406.000000 85.760 172.0536
412.000000 85.731 172.6174
418.000000 85.702 173.1772
425.000000 85.671 173.8484
431.000000 85.657 174.4027
437.000000 85.642 174.8922
444.000000 85.616 175.4682
450.000000 85.595 175.9882
455.000000 85.581 176.4391
462.000000 85.560 177.0495
468.000000 85.543 177.5529
475.000000 85.527 178.1389
482.000000 85.514 178.7402
487.000000 85.505 179.1823
494.000000 85.494 179.7924
500.000000 85.486 -179.7306
508.000000 85.477 -179.1078
515.000000 85.469 -178.5484
522.000000 85.464 -177.9825
530.000000 85.458 -177.3427
538.000000 85.454 -176.7121
545.000000 85.449 -176.1719
552.000000 85.445 -175.6347
560.000000 85.446 -175.0284
570.000000 85.453 -174.2574
580.000000 85.457 -173.4927
590.000000 85.460 -172.7498
600.000000 85.465 -171.9987
608.000000 85.468 -171.3993
615.000000 85.472 -170.8860
622.000000 85.477 -170.3850
630.000000 85.485 -169.8146
640.000000 85.492 -169.0986
650.000000 85.499 -168.3832
660.000000 85.508 -167.6749
670.000000 85.521 -166.9864
680.000000 85.537 -166.3092
690.000000 85.555 -165.6291
700.000000 85.573 -164.9434
710.000000 85.591 -164.2514
720.000000 85.610 -163.5703
730.000000 85.633 -162.9156
740.000000 85.657 -162.2665
750.000000 85.684 -161.6180
762.000000 85.715 -160.8450
775.000000 85.749 -160.0192
788.000000 85.786 -159.2208
800.000000 85.823 -158.5050
812.000000 85.861 -157.8019
825.000000 85.905 -157.0524
838.000000 85.951 -156.3276
850.000000 85.995 -155.6891
862.000000 86.040 -155.0776
875.000000 86.090 -154.4448
885.000000 86.126 -153.9841
900.000000 86.180 -153.3433
912.000000 86.220 -152.8855
925.000000 86.261 -152.4624
938.000000 86.296 -152.1431
950.000000 86.311 -151.9655
962.000000 86.293 -151.9141
975.000000 86.204 -151.9441
988.000000 85.992 -151.6808
1000.000000 85.699 -150.3495
1015.000000 85.447 -146.5075
1030.000000 85.603 -141.8700
1044.000000 86.054 -138.4727
1060.000000 86.743 -136.7890
1075.000000 87.255 -137.6133
1090.000000 87.509 -139.1446
1106.000000 87.623 -140.2598
1120.000000 87.683 -140.7541
1138.000000 87.753 -141.0169
1150.000000 87.800 -141.0692
1172.000000 87.889 -141.0255
1180.000000 87.920 -140.9804
1206.000000 88.020 -140.7749
1220.000000 88.075 -140.6400
1241.000000 88.162 -140.4266
1250.000000 88.200 -140.3326
1265.000000 88.262 -140.1701
1280.000000 88.321 -139.9977
1315.000000 88.444 -139.5593
1320.000000 88.460 -139.4929
1340.000000 88.521 -139.2213
1360.000000 88.563 -138.9485
1380.000000 88.602 -138.6639
1400.000000 88.651 -138.3562
1430.000000 88.730 -137.8788
1450.000000 88.783 -137.5574
1475.000000 88.848 -137.1520
1500.000000 88.909 -136.7162
1525.000000 88.966 -136.2581
1550.000000 89.021 -135.7948
1575.000000 89.076 -135.3255
1600.000000 89.130 -134.8589
1625.000000 89.179 -134.3766
1650.000000 89.226 -133.8788
1675.000000 89.275 -133.3787
1700.000000 89.327 -132.8773
1725.000000 89.378 -132.3699
1750.000000 89.427 -131.8499
1775.000000 89.473 -131.3172
1800.000000 89.519 -130.7738
1825.000000 89.567 -130.2228
1850.000000 89.620 -129.6588
1875.000000 89.674 -129.0756
1900.000000 89.731 -128.4739
1925.000000 89.790 -127.8556
1950.000000 89.854 -127.2215
1975.000000 89.926 -126.5923
2000.000000 90.008 -125.9945
2030.000000 90.114 -125.3405
2060.000000 90.223 -124.7670
2090.000000 90.329 -124.2601
2120.000000 90.430 -123.8004
2140.000000 90.496 -123.5112
2180.000000 90.625 -122.9543
2200.000000 90.686 -122.6864
2240.000000 90.807 -122.1694
2270.000000 90.898 -121.7985
2300.000000 90.990 -121.4454
2330.000000 91.082 -121.1150
2360.000000 91.174 -120.8029
2400.000000 91.297 -120.4166
2430.000000 91.390 -120.1480
2470.000000 91.517 -119.8241
2500.000000 91.618 -119.6267
2540.000000 91.752 -119.4179
2580.000000 91.880 -119.2904
2620.000000 92.003 -119.2660
2650.000000 92.090 -119.3081
2690.000000 92.198 -119.4324
2720.000000 92.270 -119.5697
2760.000000 92.354 -119.8041
2800.000000 92.425 -120.0910
2850.000000 92.498 -120.5040
2900.000000 92.550 -120.9669
2950.000000 92.577 -121.4458
3000.000000 92.579 -121.9178
3040.000000 92.563 -122.2710
3070.000000 92.544 -122.5118
3110.000000 92.507 -122.7869
3150.000000 92.461 -122.9977
3200.000000 92.396 -123.1702
3250.000000 92.326 -123.2609
3300.000000 92.254 -123.3085
3350.000000 92.178 -123.3352
3400.000000 92.096 -123.3446
3450.000000 92.008 -123.3274
3500.000000 91.911 -123.2572
3550.000000 91.803 -123.1201
3600.000000 91.687 -122.9002
3650.000000 91.563 -122.5828
3700.000000 91.435 -122.1654
3750.000000 91.303 -121.6441
3820.000000 91.124 -120.7732
3870.000000 91.001 -120.0673
3950.000000 90.813 -118.8210
4000.000000 90.701 -117.9873
4060.000000 90.571 -116.9378
4120.000000 90.441 -115.8307
4180.000000 90.318 -114.6699
4250.000000 90.187 -113.2623
4310.000000 90.086 -112.0353
4370.000000 89.988 -110.8131
4440.000000 89.869 -109.4078
4500.000000 89.763 -108.2283
4550.000000 89.673 -107.2519
4620.000000 89.545 -105.8628
4680.000000 89.433 -104.6257
4750.000000 89.302 -103.1048
4820.000000 89.174 -101.4799
4870.000000 89.088 -100.2526
4940.000000 88.980 -98.4482
5000.000000 88.907 -96.8632
5080.000000 88.843 -94.8303
5150.000000 88.806 -93.2309
5220.000000 88.768 -91.8155
5300.000000 88.704 -90.3550
5380.000000 88.609 -88.9600
5450.000000 88.503 -87.7220
5520.000000 88.382 -86.4207
5600.000000 88.227 -84.8129
5700.000000 88.009 -82.5636
5800.000000 87.774 -79.9980
5900.000000 87.533 -77.0663
6000.000000 87.299 -73.7176
6080.000000 87.126 -70.7039
6150.000000 86.991 -67.7885
6220.000000 86.880 -64.5730
6300.000000 86.795 -60.4514
6400.000000 86.811 -54.4870
6500.000000 87.129 -47.7972
6600.000000 87.916 -41.9664
6700.000000 88.892 -39.8369
6800.000000 89.463 -41.1629
6900.000000 89.561 -42.0481
7000.000000 89.548 -40.6771
7100.000000 89.676 -37.8371
7200.000000 89.998 -34.5409
7300.000000 90.501 -31.3805
7400.000000 91.173 -28.7215
7500.000000 92.006 -26.9073
7620.000000 93.201 -26.4538
7750.000000 94.608 -29.2298
7880.000000 95.759 -36.6666
8000.000000 96.244 -47.4670
8120.000000 95.944 -59.4759
8250.000000 94.790 -69.8369
8380.000000 93.128 -75.2958
8500.000000 91.488 -76.3168
8620.000000 89.950 -74.5416
8750.000000 88.496 -70.5598
8850.000000 87.551 -66.5885
9000.000000 86.418 -59.9462
9120.000000 85.710 -54.5398
9250.000000 85.063 -48.7175
9380.000000 84.495 -42.8150
9500.000000 84.039 -37.2098
9620.000000 83.657 -31.4416
9750.000000 83.341 -25.0466
9880.000000 83.134 -18.5676
10000.000000 83.040 -12.5821
10150.000000 83.051 -5.1987
10300.000000 83.207 1.9355
10440.000000 83.491 8.2146
10600.000000 83.988 14.7030
10750.000000 84.623 19.7983
10900.000000 85.404 23.4908
11060.000000 86.330 25.2393
11200.000000 87.102 24.3635
11380.000000 87.787 19.6853
11500.000000 87.905 14.9245
11720.000000 87.261 6.1893
11800.000000 86.782 3.9288
12060.000000 84.734 1.9189
12200.000000 83.548 3.9336
12410.000000 81.899 9.7966
12500.000000 81.268 13.0541
12650.000000 80.336 19.1753
12800.000000 79.553 25.9269
13150.000000 78.285 43.1389
13200.000000 78.165 45.6957
13400.000000 77.834 56.0130
13600.000000 77.756 66.2798
13800.000000 77.963 76.1870
14000.000000 78.487 85.2760
14300.000000 79.863 95.5011
14500.000000 80.950 97.6714
14750.000000 81.595 93.5425
15000.000000 80.740 92.4647
15250.000000 80.579 102.4767
15500.000000 81.920 104.3078
15750.000000 82.117 96.4077
16000.000000 81.131 92.1448
16250.000000 80.004 94.0364
16500.000000 79.432 98.2109
16750.000000 79.500 100.2708
17000.000000 79.741 96.5083
17250.000000 79.427 86.1762
17500.000000 77.966 73.5370
17750.000000 75.123 67.3149
18000.000000 71.419 71.5628
18250.000000 67.696 83.8085
18500.000000 64.608 101.3286
18750.000000 62.817 121.2954
19000.000000 62.531 138.6722
19250.000000 62.544 150.2269
19500.000000 61.815 159.6177
19750.000000 60.396 171.6106
20000.000000 58.745 -173.0342
20300.000000 56.968 -151.7845
20600.000000 55.764 -129.6387
20900.000000 55.202 -117.2569
21200.000000 55.290 -173.8533
21400.000000 55.600 35.7086
21800.000000 55.797 28.5911
22000.000000 54.984 -58.4795
22400.000000 50.653 27.5840
22700.000000 46.373 21.5332
23000.000000 44.408 -30.5234
23300.000000 44.887 -118.0469
23600.000000 45.442 -106.9141
24000.000000 45.364 63.2891
