* Measurement data measured by REW V5.20.13
* Source: Microphone (Realtek(R) Audio), MICROPHONE (Master Volume), L, volume: 0.730. Timing signal peak level -19.3 dBFS, measurement signal peak level -17.7 dBFS
* Format: 1M Log Swept Sine, 1 sweep at -12.0 dBFS using an acoustic timing reference
* Dated: Apr 7, 2023 3:10:22 PM
* REW Settings:
*  C-weighting compensation: Off
*  Target level: 75.0 dB
* Note: ; Delay -0.0616 ms (-21 mm, -0.83 in) using estimated IR delay relative to Acoustic reference played from HEADPHONE L with no timing offset Clock adjustment: 119.4 ppm
* Measurement: KATO Brass Mistips L
* Smoothing: 1/24 octave
* Frequency Step: 1/48 octave
* Start Frequency: 1.000 Hz
*
* Freq(Hz) SPL(dB) Phase(degrees)
1.000000 80.557 104.8275
1.015000 80.613 104.8969
1.030000 80.663 104.8977
1.044000 80.705 104.8314
1.060000 80.747 104.6702
1.075000 80.780 104.4304
1.090000 80.807 104.0990
1.106000 80.829 103.6430
1.120000 80.838 103.1825
1.138000 80.838 102.5151
1.150000 80.830 102.0236
1.172000 80.802 101.0272
1.180000 80.788 100.6348
1.206000 80.730 99.2498
1.220000 80.691 98.4357
1.241000 80.626 97.1267
1.250000 80.595 96.5338
1.265000 80.543 95.5038
1.280000 80.487 94.4220
1.315000 80.354 91.7011
1.320000 80.334 91.2903
1.340000 80.258 89.5929
1.360000 80.185 87.8103
1.380000 80.117 85.9442
1.400000 80.056 83.9965
1.430000 79.980 80.9255
1.450000 79.943 78.7813
1.475000 79.913 75.9805
1.500000 79.883 72.9295
1.525000 79.850 69.6288
1.550000 79.816 66.1122
1.575000 79.783 62.4131
1.600000 79.754 58.5653
1.625000 79.731 54.6021
1.650000 79.717 50.5573
1.675000 79.714 46.4644
1.700000 79.723 42.3570
1.725000 79.748 38.2687
1.750000 79.790 34.2331
1.775000 79.853 30.2837
1.800000 79.937 26.4541
1.825000 80.047 22.7780
1.850000 80.184 19.2140
1.875000 80.351 15.6098
1.900000 80.546 11.9771
1.925000 80.764 8.3349
1.950000 81.002 4.7023
1.975000 81.256 1.0986
2.000000 81.524 -2.4573
2.030000 81.858 -6.6343
2.060000 82.200 -10.6818
2.090000 82.543 -14.5668
2.120000 82.883 -18.2562
2.140000 83.104 -20.5910
2.180000 83.527 -24.9166
2.200000 83.724 -26.8879
2.240000 84.115 -30.4409
2.270000 84.412 -32.7998
2.300000 84.711 -34.9299
2.330000 85.009 -36.8613
2.360000 85.306 -38.6243
2.400000 85.696 -40.7648
2.430000 85.983 -42.2516
2.470000 86.355 -44.1333
2.500000 86.625 -45.5081
2.540000 86.968 -47.3496
2.580000 87.290 -49.2409
2.620000 87.595 -51.0169
2.650000 87.814 -52.2557
2.690000 88.094 -53.8024
2.720000 88.296 -54.8967
2.760000 88.555 -56.2875
2.800000 88.803 -57.6220
2.850000 89.101 -59.2476
2.900000 89.387 -60.8695
2.950000 89.662 -62.5248
3.000000 89.922 -64.1582
3.040000 90.119 -65.4352
3.070000 90.260 -66.3750
3.110000 90.441 -67.6034
3.150000 90.615 -68.8026
3.200000 90.823 -70.2594
3.250000 91.023 -71.6673
3.300000 91.217 -73.0245
3.350000 91.402 -74.3166
3.400000 91.576 -75.5432
3.450000 91.741 -76.7173
3.500000 91.897 -77.8519
3.550000 92.046 -78.9601
3.600000 92.189 -80.0548
3.650000 92.328 -81.1492
3.700000 92.461 -82.2496
3.750000 92.587 -83.3440
3.820000 92.751 -84.8545
3.870000 92.862 -85.9102
3.950000 93.030 -87.5435
4.000000 93.131 -88.5204
4.060000 93.248 -89.6387
4.120000 93.358 -90.6972
4.180000 93.462 -91.7067
4.250000 93.577 -92.8382
4.310000 93.672 -93.7819
4.370000 93.763 -94.7137
4.440000 93.868 -95.7941
4.500000 93.953 -96.7019
4.550000 94.021 -97.4438
4.620000 94.113 -98.4597
4.680000 94.190 -99.3086
4.750000 94.279 -100.2725
4.820000 94.366 -101.2029
4.870000 94.426 -101.8449
4.940000 94.509 -102.7192
5.000000 94.578 -103.4521
5.080000 94.669 -104.4163
5.150000 94.747 -105.2567
5.220000 94.823 -106.0870
5.300000 94.908 -107.0208
5.380000 94.991 -107.9412
5.450000 95.062 -108.7378
5.520000 95.131 -109.5278
5.600000 95.207 -110.4202
5.700000 95.300 -111.5202
5.800000 95.389 -112.6050
5.900000 95.475 -113.6768
6.000000 95.556 -114.7356
6.080000 95.618 -115.5722
6.150000 95.671 -116.2959
6.220000 95.721 -117.0113
6.300000 95.777 -117.8205
6.400000 95.842 -118.8197
6.500000 95.904 -119.7993
6.600000 95.963 -120.7528
6.700000 96.019 -121.6791
6.800000 96.071 -122.5812
6.900000 96.122 -123.4599
7.000000 96.171 -124.3160
7.100000 96.219 -125.1484
7.200000 96.265 -125.9581
7.300000 96.310 -126.7462
7.400000 96.356 -127.5119
7.500000 96.400 -128.2538
7.620000 96.453 -129.1199
7.750000 96.510 -130.0370
7.880000 96.566 -130.9277
8.000000 96.618 -131.7310
8.120000 96.670 -132.5210
8.250000 96.725 -133.3590
8.380000 96.779 -134.1810
8.500000 96.828 -134.9281
8.620000 96.875 -135.6635
8.750000 96.924 -136.4444
8.850000 96.960 -137.0332
9.000000 97.012 -137.8989
9.120000 97.051 -138.5717
9.250000 97.093 -139.2764
9.380000 97.134 -139.9580
9.500000 97.168 -140.5684
9.620000 97.200 -141.1612
9.750000 97.232 -141.7830
9.880000 97.258 -142.3867
10.000000 97.274 -142.9300
10.150000 97.286 -143.5878
10.300000 97.292 -144.2172
10.440000 97.290 -144.7763
10.600000 97.285 -145.3909
10.750000 97.281 -145.9468
10.900000 97.277 -146.4845
11.060000 97.273 -147.0546
11.200000 97.271 -147.5509
11.380000 97.267 -148.1735
11.500000 97.263 -148.5775
11.720000 97.255 -149.2934
11.800000 97.252 -149.5439
12.060000 97.243 -150.3273
12.200000 97.240 -150.7360
12.410000 97.237 -151.3303
12.500000 97.235 -151.5774
12.650000 97.232 -151.9785
12.800000 97.229 -152.3692
13.150000 97.221 -153.2452
13.200000 97.221 -153.3678
13.400000 97.218 -153.8520
13.600000 97.217 -154.3282
13.800000 97.216 -154.7966
14.000000 97.215 -155.2611
14.300000 97.212 -155.9503
14.500000 97.208 -156.4011
14.750000 97.203 -156.9525
15.000000 97.198 -157.4902
15.250000 97.195 -158.0189
15.500000 97.193 -158.5341
15.750000 97.192 -159.0340
16.000000 97.190 -159.5172
16.250000 97.187 -159.9881
16.500000 97.184 -160.4473
16.750000 97.183 -160.8942
17.000000 97.182 -161.3289
17.250000 97.184 -161.7513
17.500000 97.186 -162.1614
17.750000 97.188 -162.5591
18.000000 97.190 -162.9452
18.250000 97.192 -163.3212
18.500000 97.195 -163.6868
18.750000 97.199 -164.0429
19.000000 97.204 -164.3908
19.250000 97.210 -164.7348
19.500000 97.216 -165.0752
19.750000 97.223 -165.4125
20.000000 97.228 -165.7454
20.299999 97.233 -166.1371
20.600000 97.235 -166.5178
20.900000 97.236 -166.8849
21.200001 97.236 -167.2375
21.400000 97.236 -167.4656
21.799999 97.233 -167.9095
22.000000 97.232 -168.1277
22.400000 97.229 -168.5608
22.700001 97.226 -168.8811
23.000000 97.223 -169.1950
23.299999 97.218 -169.5014
23.600000 97.214 -169.8008
24.000000 97.210 -170.1913
24.299999 97.207 -170.4807
24.700001 97.204 -170.8641
25.000000 97.201 -171.1483
25.400000 97.196 -171.5182
25.799999 97.192 -171.8727
26.200001 97.188 -172.2134
26.500000 97.187 -172.4646
26.900000 97.186 -172.7989
27.200001 97.185 -173.0506
27.600000 97.182 -173.3845
28.000000 97.177 -173.7086
28.500000 97.170 -174.0916
29.000000 97.164 -174.4539
29.500000 97.160 -174.8088
30.000000 97.154 -175.1651
30.400000 97.146 -175.4488
30.700001 97.139 -175.6579
31.100000 97.129 -175.9303
31.500000 97.119 -176.1975
32.000000 97.108 -176.5292
32.500000 97.096 -176.8572
33.000000 97.083 -177.1724
33.500000 97.072 -177.4711
34.000000 97.063 -177.7649
34.500000 97.055 -178.0656
35.000000 97.046 -178.3618
35.500000 97.034 -178.6285
36.000000 97.025 -178.8673
36.500000 97.018 -179.1117
37.000000 97.008 -179.3782
37.500000 96.990 -179.6260
38.200001 96.963 -179.8455
38.700001 96.960 -179.9553
39.500000 96.976 179.6726
40.000000 96.975 179.2963
40.599998 96.951 178.8459
41.200001 96.918 178.5098
41.799999 96.893 178.2495
42.500000 96.875 177.9470
43.099998 96.867 177.6718
43.700001 96.861 177.3727
44.400002 96.850 176.9865
45.000000 96.832 176.6753
45.500000 96.814 176.4692
46.200001 96.795 176.2354
46.799999 96.782 176.0299
47.500000 96.766 175.7787
48.200001 96.748 175.5447
48.700001 96.735 175.3798
49.400002 96.717 175.1309
50.000000 96.700 174.9086
50.799999 96.675 174.6202
51.500000 96.654 174.3690
52.200001 96.635 174.1126
53.000000 96.613 173.8268
53.799999 96.592 173.5555
54.500000 96.576 173.3176
55.200001 96.557 173.0848
56.000000 96.535 172.8521
57.000000 96.508 172.5907
58.000000 96.478 172.3535
59.000000 96.454 172.1753
60.000000 96.441 171.8827
60.799999 96.417 171.5664
61.500000 96.385 171.3324
62.200001 96.354 171.1479
63.000000 96.324 170.9490
64.000000 96.289 170.7032
65.000000 96.258 170.4631
66.000000 96.229 170.2188
67.000000 96.199 169.9778
68.000000 96.167 169.7509
69.000000 96.135 169.5476
70.000000 96.104 169.3544
71.000000 96.074 169.1553
72.000000 96.044 168.9534
73.000000 96.013 168.7574
74.000000 95.983 168.5639
75.000000 95.955 168.3637
76.199997 95.919 168.1171
77.500000 95.877 167.8598
78.800003 95.834 167.6305
80.000000 95.796 167.4304
81.199997 95.758 167.2256
82.500000 95.715 167.0138
83.800003 95.673 166.8128
85.000000 95.636 166.6223
86.199997 95.597 166.4410
87.500000 95.557 166.2687
88.500000 95.527 166.1442
90.000000 95.484 165.9561
91.199997 95.449 165.8054
92.500000 95.409 165.6519
93.800003 95.370 165.5096
95.000000 95.334 165.3777
96.199997 95.297 165.2438
97.500000 95.258 165.1035
98.800003 95.219 164.9639
100.000000 95.182 164.8378
101.500000 95.136 164.6851
103.000000 95.090 164.5313
104.400002 95.046 164.3917
106.000000 94.995 164.2535
107.500000 94.950 164.1342
109.000000 94.906 164.0053
110.599998 94.856 163.8807
112.000000 94.811 163.7849
113.800003 94.754 163.6508
115.000000 94.716 163.5538
117.199997 94.649 163.3732
118.000000 94.626 163.3123
120.599998 94.552 163.1305
122.000000 94.511 163.0807
124.099998 94.452 163.0046
125.000000 94.425 162.9644
126.500000 94.380 162.9025
128.000000 94.336 162.8459
131.500000 94.239 162.7189
132.000000 94.225 162.7047
134.000000 94.171 162.6552
136.000000 94.117 162.6034
138.000000 94.065 162.5520
140.000000 94.014 162.5104
143.000000 93.939 162.4775
145.000000 93.890 162.4569
147.500000 93.828 162.4296
150.000000 93.766 162.4236
152.500000 93.707 162.4379
155.000000 93.648 162.4497
157.500000 93.585 162.4659
160.000000 93.521 162.5023
162.500000 93.462 162.5392
165.000000 93.403 162.5668
167.500000 93.344 162.6227
170.000000 93.285 162.6942
172.500000 93.224 162.7486
175.000000 93.163 162.8021
177.500000 93.108 162.8638
180.000000 93.052 162.9225
182.500000 92.990 163.0074
185.000000 92.926 163.1056
187.500000 92.865 163.2020
190.000000 92.809 163.3030
192.500000 92.756 163.4083
195.000000 92.704 163.5132
197.500000 92.652 163.6210
200.000000 92.603 163.7371
203.000000 92.545 163.8882
206.000000 92.484 164.0507
209.000000 92.425 164.2086
212.000000 92.367 164.3658
214.000000 92.330 164.4758
218.000000 92.256 164.7029
220.000000 92.220 164.8212
224.000000 92.149 165.0758
227.000000 92.097 165.2638
230.000000 92.048 165.4348
233.000000 91.999 165.6089
236.000000 91.949 165.8051
240.000000 91.885 166.0599
243.000000 91.840 166.2350
247.000000 91.779 166.5000
250.000000 91.734 166.7064
254.000000 91.676 166.9754
258.000000 91.618 167.2541
262.000000 91.559 167.5414
265.000000 91.519 167.7607
269.000000 91.468 168.0509
272.000000 91.429 168.2618
276.000000 91.381 168.5424
280.000000 91.336 168.8420
285.000000 91.279 169.2215
290.000000 91.222 169.5829
295.000000 91.171 169.9520
300.000000 91.121 170.3183
304.000000 91.083 170.6308
307.000000 91.055 170.8724
311.000000 91.018 171.1881
315.000000 90.982 171.4836
320.000000 90.940 171.8328
325.000000 90.897 172.2063
330.000000 90.856 172.5881
335.000000 90.815 172.9625
340.000000 90.776 173.3517
345.000000 90.737 173.7371
350.000000 90.698 174.1052
355.000000 90.660 174.4722
360.000000 90.619 174.8527
365.000000 90.580 175.2445
370.000000 90.544 175.6284
375.000000 90.508 176.0053
382.000000 90.457 176.5421
387.000000 90.422 176.9318
395.000000 90.368 177.5450
400.000000 90.332 177.9235
406.000000 90.292 178.3805
412.000000 90.255 178.8389
418.000000 90.219 179.2931
425.000000 90.179 179.8309
431.000000 90.147 -179.7008
437.000000 90.112 -179.2441
444.000000 90.071 -178.7241
450.000000 90.039 -178.2704
455.000000 90.015 -177.8817
462.000000 89.978 -177.3372
468.000000 89.946 -176.8759
475.000000 89.911 -176.3389
482.000000 89.879 -175.8030
487.000000 89.855 -175.4149
494.000000 89.824 -174.8466
500.000000 89.800 -174.3340
508.000000 89.772 -173.6456
515.000000 89.750 -173.0605
522.000000 89.731 -172.4737
530.000000 89.710 -171.7924
538.000000 89.692 -171.1266
545.000000 89.679 -170.5613
552.000000 89.669 -169.9817
560.000000 89.657 -169.3192
570.000000 89.646 -168.5317
580.000000 89.635 -167.7417
590.000000 89.624 -166.9342
600.000000 89.619 -166.1321
608.000000 89.612 -165.5014
615.000000 89.604 -164.9460
622.000000 89.597 -164.3899
630.000000 89.591 -163.7580
640.000000 89.584 -162.9631
650.000000 89.577 -162.1670
660.000000 89.575 -161.3735
670.000000 89.576 -160.5804
680.000000 89.578 -159.7825
690.000000 89.583 -158.9885
700.000000 89.592 -158.1942
710.000000 89.601 -157.3884
720.000000 89.609 -156.5844
730.000000 89.624 -155.7925
740.000000 89.641 -155.0007
750.000000 89.657 -154.1982
762.000000 89.678 -153.2296
775.000000 89.706 -152.1740
788.000000 89.736 -151.1291
800.000000 89.766 -150.1877
812.000000 89.802 -149.2544
825.000000 89.845 -148.2294
838.000000 89.890 -147.2086
850.000000 89.937 -146.2707
862.000000 89.987 -145.3402
875.000000 90.044 -144.3581
885.000000 90.091 -143.6098
900.000000 90.169 -142.4928
912.000000 90.235 -141.6288
925.000000 90.306 -140.7127
938.000000 90.383 -139.8064
950.000000 90.460 -138.9944
962.000000 90.537 -138.2118
975.000000 90.621 -137.3902
988.000000 90.709 -136.5856
1000.000000 90.794 -135.8648
1015.000000 90.901 -135.0132
1030.000000 91.009 -134.2032
1044.000000 91.116 -133.4726
1060.000000 91.238 -132.6909
1075.000000 91.352 -132.0088
1090.000000 91.474 -131.3526
1106.000000 91.614 -130.6910
1120.000000 91.737 -130.1602
1138.000000 91.894 -129.5275
1150.000000 91.999 -129.1208
1172.000000 92.191 -128.4243
1180.000000 92.259 -128.1901
1206.000000 92.480 -127.4840
1220.000000 92.599 -127.1283
1241.000000 92.778 -126.6378
1250.000000 92.855 -126.4433
1265.000000 92.980 -126.1287
1280.000000 93.102 -125.8204
1315.000000 93.378 -125.1641
1320.000000 93.416 -125.0792
1340.000000 93.559 -124.7446
1360.000000 93.682 -124.4217
1380.000000 93.800 -124.1278
1400.000000 93.929 -123.8391
1430.000000 94.125 -123.3957
1450.000000 94.253 -123.1277
1475.000000 94.412 -122.8009
1500.000000 94.568 -122.4612
1525.000000 94.719 -122.1540
1550.000000 94.863 -121.8579
1575.000000 95.001 -121.5478
1600.000000 95.139 -121.2559
1625.000000 95.277 -120.9810
1650.000000 95.412 -120.7040
1675.000000 95.548 -120.4397
1700.000000 95.684 -120.2006
1725.000000 95.818 -119.9683
1750.000000 95.951 -119.7439
1775.000000 96.084 -119.5470
1800.000000 96.216 -119.3743
1825.000000 96.348 -119.2082
1850.000000 96.479 -119.0606
1875.000000 96.611 -118.9524
1900.000000 96.742 -118.8704
1925.000000 96.872 -118.7995
1950.000000 97.000 -118.7554
1975.000000 97.126 -118.7498
2000.000000 97.250 -118.7613
2030.000000 97.397 -118.7900
2060.000000 97.541 -118.8710
2090.000000 97.682 -119.0030
2120.000000 97.819 -119.1546
2140.000000 97.909 -119.2729
2180.000000 98.083 -119.5724
2200.000000 98.166 -119.7415
2240.000000 98.321 -120.1078
2270.000000 98.431 -120.4256
2300.000000 98.535 -120.7769
2330.000000 98.632 -121.1413
2360.000000 98.721 -121.5182
2400.000000 98.830 -122.0632
2430.000000 98.904 -122.4927
2470.000000 98.989 -123.0699
2500.000000 99.044 -123.5069
2540.000000 99.107 -124.0993
2580.000000 99.157 -124.6890
2620.000000 99.192 -125.2567
2650.000000 99.211 -125.6756
2690.000000 99.226 -126.2239
2720.000000 99.229 -126.6108
2760.000000 99.220 -127.0880
2800.000000 99.202 -127.5375
2850.000000 99.168 -128.0441
2900.000000 99.118 -128.4565
2950.000000 99.058 -128.8038
3000.000000 98.990 -129.0714
3040.000000 98.927 -129.2125
3070.000000 98.878 -129.2852
3110.000000 98.812 -129.3453
3150.000000 98.743 -129.3514
3200.000000 98.654 -129.2777
3250.000000 98.564 -129.1378
3300.000000 98.475 -128.9304
3350.000000 98.386 -128.6461
3400.000000 98.300 -128.3004
3450.000000 98.224 -127.9057
3500.000000 98.156 -127.4571
3550.000000 98.093 -126.9584
3600.000000 98.036 -126.4272
3650.000000 97.985 -125.8715
3700.000000 97.938 -125.2894
3750.000000 97.896 -124.6847
3820.000000 97.846 -123.8262
3870.000000 97.814 -123.2085
3950.000000 97.765 -122.2071
4000.000000 97.739 -121.5962
4060.000000 97.711 -120.8801
4120.000000 97.679 -120.1576
4180.000000 97.644 -119.3949
4250.000000 97.609 -118.3613
4310.000000 97.606 -117.3272
4370.000000 97.641 -116.3937
4440.000000 97.698 -115.6966
4500.000000 97.726 -115.3232
4550.000000 97.734 -115.0549
4620.000000 97.730 -114.6935
4680.000000 97.719 -114.3868
4750.000000 97.693 -113.9902
4820.000000 97.659 -113.4781
4870.000000 97.643 -113.0071
4940.000000 97.661 -112.3056
5000.000000 97.708 -111.9243
5080.000000 97.755 -111.8602
5150.000000 97.754 -111.9585
5220.000000 97.727 -112.0160
5300.000000 97.680 -112.0037
5380.000000 97.628 -111.9479
5450.000000 97.584 -111.8937
5520.000000 97.542 -111.8523
5600.000000 97.493 -111.8376
5700.000000 97.428 -111.9311
5800.000000 97.353 -112.2228
5900.000000 97.246 -112.7472
6000.000000 97.083 -113.4790
6080.000000 96.892 -114.0991
6150.000000 96.672 -114.5179
6220.000000 96.407 -114.6867
6300.000000 96.068 -114.4463
6400.000000 95.633 -113.3914
6500.000000 95.237 -111.5755
6600.000000 94.922 -109.2514
6700.000000 94.703 -106.6934
6800.000000 94.578 -104.1133
6900.000000 94.548 -101.6570
7000.000000 94.603 -99.4181
7100.000000 94.713 -97.4352
7200.000000 94.862 -95.7372
7300.000000 95.041 -94.3729
7400.000000 95.243 -93.4002
7500.000000 95.453 -92.8522
7620.000000 95.710 -92.7584
7750.000000 95.969 -93.3299
7880.000000 96.096 -94.5210
8000.000000 96.086 -96.0441
8120.000000 95.967 -97.7993
8250.000000 95.713 -99.7282
8380.000000 95.330 -101.4212
8500.000000 94.876 -102.5838
8620.000000 94.347 -103.2407
8750.000000 93.705 -103.3031
8850.000000 93.180 -102.8863
9000.000000 92.379 -101.5525
9120.000000 91.746 -99.9232
9250.000000 91.077 -97.6584
9380.000000 90.438 -94.9512
9500.000000 89.881 -92.1184
9620.000000 89.360 -89.0107
9750.000000 88.841 -85.3817
9880.000000 88.374 -81.5275
10000.000000 87.988 -77.8034
10150.000000 87.563 -72.9588
10300.000000 87.199 -67.9489
10440.000000 86.922 -63.1712
10600.000000 86.681 -57.6451
10750.000000 86.530 -52.4408
10900.000000 86.457 -47.2727
11060.000000 86.473 -41.8855
11200.000000 86.565 -37.3400
11380.000000 86.790 -31.8091
11500.000000 87.012 -28.3855
11720.000000 87.577 -22.9086
11800.000000 87.831 -21.2536
12060.000000 88.802 -17.5708
12200.000000 89.383 -16.9694
12410.000000 90.217 -18.3842
12500.000000 90.518 -19.9052
12650.000000 90.883 -23.5686
12800.000000 91.018 -28.2660
13150.000000 90.295 -39.2065
13200.000000 90.087 -40.3841
13400.000000 89.102 -43.5831
13600.000000 88.006 -44.4092
13800.000000 86.943 -43.2891
14000.000000 85.987 -40.7786
14300.000000 84.792 -35.4334
14500.000000 84.143 -31.2623
14750.000000 83.477 -25.7455
15000.000000 82.947 -20.2095
15250.000000 82.524 -14.8920
15500.000000 82.206 -9.9388
15750.000000 81.973 -5.4547
16000.000000 81.758 -1.5637
16250.000000 81.513 1.5247
16500.000000 81.153 3.5188
16750.000000 80.497 4.9666
17000.000000 79.518 8.4500
17250.000000 78.712 13.7887
17500.000000 78.143 17.7542
17750.000000 77.471 20.6664
18000.000000 76.695 23.6441
18250.000000 75.902 26.7938
18500.000000 75.098 29.7294
18750.000000 74.329 32.2534
19000.000000 73.622 34.4051
19250.000000 72.935 36.2923
19500.000000 72.238 38.0955
19750.000000 71.554 40.0833
20000.000000 70.842 42.5105
20300.000000 69.955 46.5333
20600.000000 69.165 52.4931
20900.000000 68.500 60.9474
21200.000000 68.017 71.9800
21400.000000 67.842 80.5119
21800.000000 67.928 96.3974
22000.000000 68.152 90.1224
22400.000000 68.092 48.3328
22700.000000 65.943 -61.8147
23000.000000 61.063 55.9580
23300.000000 55.307 -110.0312
23600.000000 52.869 127.0156
24000.000000 53.048 -55.5586
