* Measurement data measured by REW V5.20.13
* Source: Headset (DS by VECLAN.COM), MICROPHONE (Master Volume), L, volume: 0.800. Timing signal peak level -18.3 dBFS, measurement signal peak level -8.1 dBFS
* Format: 2M Log Swept Sine, 1 sweep at -12.0 dBFS using an acoustic timing reference
* Dated: Oct 15, 2023 2:01:58 PM
* REW Settings:
*  C-weighting compensation: Off
*  Target level: 75.0 dB
* Note: ; Delay -0.0642 ms (-22 mm, -0.87 in) using estimated IR delay relative to Acoustic reference played from HEADPHONE L with no timing offset
* Measurement: KBEAR KW1 L
* Smoothing: 1/24 octave
* Frequency Step: 1/48 octave
* Start Frequency: 1.000 Hz
*
* Freq(Hz) SPL(dB) Phase(degrees)
1.000000 91.679 -93.2786
1.015000 91.904 -94.9080
1.030000 92.124 -96.4768
1.044000 92.323 -97.8801
1.060000 92.542 -99.4042
1.075000 92.737 -100.7486
1.090000 92.920 -102.0041
1.106000 93.104 -103.2403
1.120000 93.263 -104.2497
1.138000 93.466 -105.4586
1.150000 93.600 -106.2120
1.172000 93.846 -107.4923
1.180000 93.934 -107.9274
1.206000 94.219 -109.2396
1.220000 94.370 -109.8871
1.241000 94.593 -110.7897
1.250000 94.687 -111.1538
1.265000 94.842 -111.7335
1.280000 94.994 -112.2829
1.315000 95.337 -113.4699
1.320000 95.384 -113.6308
1.340000 95.570 -114.2592
1.360000 95.749 -114.8700
1.380000 95.921 -115.4732
1.400000 96.084 -116.0782
1.430000 96.313 -117.0108
1.450000 96.454 -117.6633
1.475000 96.617 -118.5228
1.500000 96.760 -119.3737
1.525000 96.886 -120.2003
1.550000 96.997 -121.0023
1.575000 97.093 -121.7795
1.600000 97.178 -122.5317
1.625000 97.253 -123.2585
1.650000 97.320 -123.9597
1.675000 97.381 -124.6352
1.700000 97.437 -125.2845
1.725000 97.491 -125.9075
1.750000 97.544 -126.5040
1.775000 97.598 -127.0736
1.800000 97.656 -127.6161
1.825000 97.718 -128.1313
1.850000 97.784 -128.6124
1.875000 97.846 -129.0461
1.900000 97.905 -129.4370
1.925000 97.961 -129.7903
1.950000 98.015 -130.1113
1.975000 98.067 -130.4052
2.000000 98.118 -130.6773
2.030000 98.177 -130.9824
2.060000 98.236 -131.2727
2.090000 98.295 -131.5573
2.120000 98.355 -131.8451
2.140000 98.396 -132.0433
2.180000 98.482 -132.4669
2.200000 98.527 -132.6976
2.240000 98.621 -133.1701
2.270000 98.694 -133.5239
2.300000 98.767 -133.8771
2.330000 98.842 -134.2293
2.360000 98.917 -134.5802
2.400000 99.017 -135.0457
2.430000 99.092 -135.3925
2.470000 99.191 -135.8516
2.500000 99.264 -136.1929
2.540000 99.358 -136.6434
2.580000 99.448 -137.0881
2.620000 99.536 -137.5258
2.650000 99.601 -137.8499
2.690000 99.686 -138.2777
2.720000 99.749 -138.5959
2.760000 99.832 -139.0175
2.800000 99.913 -139.4373
2.850000 100.012 -139.9613
2.900000 100.110 -140.4867
2.950000 100.206 -141.0145
3.000000 100.301 -141.5357
3.040000 100.377 -141.9487
3.070000 100.432 -142.2577
3.110000 100.505 -142.6703
3.150000 100.576 -143.0859
3.200000 100.663 -143.6128
3.250000 100.746 -144.1522
3.300000 100.826 -144.7084
3.350000 100.903 -145.2881
3.400000 100.977 -145.8885
3.450000 101.048 -146.5017
3.500000 101.116 -147.1202
3.550000 101.180 -147.7361
3.600000 101.241 -148.3417
3.650000 101.299 -148.9292
3.700000 101.352 -149.4955
3.750000 101.402 -150.0489
3.820000 101.466 -150.8069
3.870000 101.507 -151.3393
3.950000 101.567 -152.1820
4.000000 101.600 -152.7063
4.060000 101.636 -153.3389
4.120000 101.667 -153.9829
4.180000 101.692 -154.6283
4.250000 101.717 -155.3669
4.310000 101.734 -155.9738
4.370000 101.748 -156.5437
4.440000 101.754 -157.1523
4.500000 101.756 -157.6368
4.550000 101.759 -158.0173
4.620000 101.763 -158.5181
4.680000 101.765 -158.9208
4.750000 101.767 -159.3636
4.820000 101.766 -159.7765
4.870000 101.764 -160.0498
4.940000 101.760 -160.4047
5.000000 101.758 -160.6857
5.080000 101.757 -161.0314
5.150000 101.761 -161.3086
5.220000 101.768 -161.5443
5.300000 101.779 -161.7743
5.380000 101.793 -161.9879
5.450000 101.810 -162.1823
5.520000 101.831 -162.3982
5.600000 101.862 -162.6415
5.700000 101.907 -162.9527
5.800000 101.957 -163.3088
5.900000 102.007 -163.7444
6.000000 102.063 -164.2434
6.080000 102.109 -164.6861
6.150000 102.147 -165.1078
6.220000 102.180 -165.5640
6.300000 102.212 -166.1351
6.400000 102.250 -166.9198
6.500000 102.277 -167.7571
6.600000 102.289 -168.6194
6.700000 102.285 -169.5323
6.800000 102.268 -170.4864
6.900000 102.234 -171.4243
7.000000 102.183 -172.3014
7.100000 102.112 -173.1656
7.200000 102.026 -173.9811
7.300000 101.928 -174.6878
7.400000 101.818 -175.2607
7.500000 101.692 -175.7361
7.620000 101.535 -176.1340
7.750000 101.373 -176.2898
7.880000 101.208 -176.1552
8.000000 101.073 -175.8386
8.120000 100.974 -175.3719
8.250000 100.897 -174.6339
8.380000 100.861 -173.8351
8.500000 100.875 -173.1633
8.620000 100.932 -172.4755
8.750000 101.026 -171.8685
8.850000 101.116 -171.5925
9.000000 101.290 -171.4094
9.120000 101.440 -171.4893
9.250000 101.595 -171.8477
9.380000 101.754 -172.4727
9.500000 101.884 -173.2145
9.620000 101.990 -174.0999
9.750000 102.085 -175.2394
9.880000 102.148 -176.4467
10.000000 102.173 -177.5977
10.150000 102.166 -179.0990
10.300000 102.122 179.4831
10.440000 102.043 178.2245
10.600000 101.925 176.9131
10.750000 101.798 175.8643
10.900000 101.654 174.9694
11.060000 101.499 174.2010
11.200000 101.361 173.6900
11.380000 101.191 173.2144
11.500000 101.084 173.0138
11.720000 100.903 172.8350
11.800000 100.846 172.8145
12.060000 100.684 172.9087
12.200000 100.614 173.0136
12.410000 100.531 173.2409
12.500000 100.503 173.3510
12.650000 100.464 173.5592
12.800000 100.436 173.7765
13.150000 100.414 174.2717
13.200000 100.415 174.3299
13.400000 100.433 174.5346
13.600000 100.462 174.6505
13.800000 100.501 174.6596
14.000000 100.538 174.5588
14.300000 100.582 174.2157
14.500000 100.595 173.8987
14.750000 100.590 173.4803
15.000000 100.565 173.0775
15.250000 100.527 172.7523
15.500000 100.484 172.5122
15.750000 100.441 172.3519
16.000000 100.402 172.2383
16.250000 100.369 172.1207
16.500000 100.339 171.9778
16.750000 100.310 171.7878
17.000000 100.277 171.5663
17.250000 100.240 171.3290
17.500000 100.198 171.0991
17.750000 100.154 170.8949
18.000000 100.111 170.7119
18.250000 100.073 170.5446
18.500000 100.041 170.3681
18.750000 100.013 170.1715
19.000000 99.990 169.9447
19.250000 99.967 169.6909
19.500000 99.943 169.4261
19.750000 99.919 169.1629
20.000000 99.895 168.9209
20.299999 99.870 168.6572
20.600000 99.851 168.4122
20.900000 99.840 168.1647
21.200001 99.833 167.8929
21.400000 99.828 167.6969
21.799999 99.814 167.2933
22.000000 99.804 167.1021
22.400000 99.781 166.7761
22.700001 99.766 166.5876
23.000000 99.758 166.4246
23.299999 99.755 166.2465
23.600000 99.755 166.0257
24.000000 99.747 165.6562
24.299999 99.730 165.3572
24.700001 99.688 165.0066
25.000000 99.650 164.8240
25.400000 99.603 164.6917
25.799999 99.570 164.6105
26.200001 99.551 164.4731
26.500000 99.538 164.2984
26.900000 99.514 163.9870
27.200001 99.487 163.7375
27.600000 99.443 163.4412
28.000000 99.399 163.2097
28.500000 99.356 162.9629
29.000000 99.325 162.6748
29.500000 99.297 162.3224
30.000000 99.266 161.9494
30.400000 99.239 161.6603
30.700001 99.220 161.4491
31.100000 99.194 161.1691
31.500000 99.168 160.8918
32.000000 99.133 160.5637
32.500000 99.097 160.2701
33.000000 99.063 160.0060
33.500000 99.030 159.7592
34.000000 98.998 159.5287
34.500000 98.971 159.3126
35.000000 98.948 159.0868
35.500000 98.928 158.8153
36.000000 98.901 158.4944
36.500000 98.863 158.1690
37.000000 98.817 157.9000
37.500000 98.773 157.7041
38.200001 98.725 157.4780
38.700001 98.700 157.2907
39.500000 98.665 156.9249
40.000000 98.644 156.6534
40.599998 98.616 156.2641
41.200001 98.573 155.8448
41.799999 98.515 155.5137
42.500000 98.452 155.3090
43.099998 98.420 155.1743
43.700001 98.398 154.9687
44.400002 98.367 154.6734
45.000000 98.339 154.4268
45.500000 98.318 154.2032
46.200001 98.285 153.8257
46.799999 98.249 153.4729
47.500000 98.200 153.0726
48.200001 98.148 152.6632
48.700001 98.104 152.3710
49.400002 98.033 152.0493
50.000000 97.975 151.9223
50.799999 97.930 151.8854
51.500000 97.920 151.8021
52.200001 97.918 151.6326
53.000000 97.920 151.3727
53.799999 97.919 150.9388
54.500000 97.885 150.4321
55.200001 97.814 150.0005
56.000000 97.718 149.6984
57.000000 97.612 149.4486
58.000000 97.528 149.0641
59.000000 97.421 148.5748
60.000000 97.330 148.4189
60.799999 97.312 148.2772
61.500000 97.304 148.0267
62.200001 97.292 147.8090
63.000000 97.288 147.5550
64.000000 97.252 147.1541
65.000000 97.183 147.0262
66.000000 97.131 146.9124
67.000000 97.047 146.6544
68.000000 96.948 146.5932
69.000000 96.894 146.5039
70.000000 96.858 146.1177
71.000000 96.798 145.6058
72.000000 96.723 145.2944
73.000000 96.673 145.1924
74.000000 96.648 145.0289
75.000000 96.619 144.7345
76.199997 96.555 144.2609
77.500000 96.440 143.8998
78.800003 96.353 143.8088
80.000000 96.303 143.6397
81.199997 96.257 143.4128
82.500000 96.201 143.1588
83.800003 96.135 142.9014
85.000000 96.069 142.7045
86.199997 96.013 142.5079
87.500000 95.975 142.2534
88.500000 95.956 141.9326
90.000000 95.892 141.3830
91.199997 95.806 141.1015
92.500000 95.691 141.0717
93.800003 95.595 141.1768
95.000000 95.525 141.1045
96.199997 95.460 140.8506
97.500000 95.404 140.4836
98.800003 95.374 139.9897
100.000000 95.327 139.4026
101.500000 95.201 139.0909
103.000000 95.086 139.4145
104.400002 95.008 139.7142
106.000000 94.919 139.8917
107.500000 94.852 139.8665
109.000000 94.788 139.5741
110.599998 94.695 139.4798
112.000000 94.671 139.5171
113.800003 94.608 139.1739
115.000000 94.551 139.1594
117.199997 94.534 138.7260
118.000000 94.492 138.2747
120.599998 94.250 138.6009
122.000000 94.309 139.0363
124.099998 94.269 137.9123
125.000000 94.146 137.6522
126.500000 93.952 137.8639
128.000000 93.839 138.3368
131.500000 93.877 138.5005
132.000000 93.896 138.2871
134.000000 93.896 137.0311
136.000000 93.750 136.1695
138.000000 93.601 136.1832
140.000000 93.518 136.3083
143.000000 93.381 136.2766
145.000000 93.282 136.3656
147.500000 93.160 136.2971
150.000000 93.043 136.2147
152.500000 92.991 136.2705
155.000000 92.947 136.2962
157.500000 92.860 136.3356
160.000000 92.767 136.2368
162.500000 92.683 135.9912
165.000000 92.589 135.9070
167.500000 92.499 135.9745
170.000000 92.414 135.8804
172.500000 92.326 135.7271
175.000000 92.254 135.6805
177.500000 92.189 135.6729
180.000000 92.107 135.6573
182.500000 91.998 135.6755
185.000000 91.893 135.7327
187.500000 91.807 135.7592
190.000000 91.733 135.8168
192.500000 91.655 135.8680
195.000000 91.561 135.8558
197.500000 91.464 135.7758
200.000000 91.369 135.6306
203.000000 91.265 135.6187
206.000000 91.198 135.8395
209.000000 91.129 136.0156
212.000000 91.031 136.1819
214.000000 90.975 136.2902
218.000000 90.877 136.2559
220.000000 90.815 136.2145
224.000000 90.698 136.2372
227.000000 90.639 136.2346
230.000000 90.572 136.1042
233.000000 90.448 136.2203
236.000000 90.305 136.5211
240.000000 90.124 136.6662
243.000000 90.062 136.6515
247.000000 90.006 136.5395
250.000000 89.943 136.6619
254.000000 89.869 137.1012
258.000000 89.803 137.4648
262.000000 89.707 137.4155
265.000000 89.635 137.3264
269.000000 89.555 137.2442
272.000000 89.490 137.1616
276.000000 89.411 137.1973
280.000000 89.343 137.5730
285.000000 89.260 137.9604
290.000000 89.162 138.3019
295.000000 89.043 138.5804
300.000000 88.936 138.7648
304.000000 88.846 139.0387
307.000000 88.786 139.2300
311.000000 88.721 139.4212
315.000000 88.660 139.4791
320.000000 88.585 139.5134
325.000000 88.511 139.7285
330.000000 88.427 140.0266
335.000000 88.330 140.2738
340.000000 88.217 140.5541
345.000000 88.103 140.9139
350.000000 88.015 141.2083
355.000000 87.952 141.4673
360.000000 87.895 141.7051
365.000000 87.827 141.9899
370.000000 87.733 142.3065
375.000000 87.641 142.5368
382.000000 87.516 142.8758
387.000000 87.452 143.0860
395.000000 87.367 143.6624
400.000000 87.320 144.0958
406.000000 87.225 144.4910
412.000000 87.092 144.8282
418.000000 86.998 145.1879
425.000000 86.918 145.5592
431.000000 86.849 145.9374
437.000000 86.765 146.2243
444.000000 86.663 146.5778
450.000000 86.588 147.1158
455.000000 86.531 147.4644
462.000000 86.453 147.7023
468.000000 86.389 148.4133
475.000000 86.328 149.3240
482.000000 86.271 149.6089
487.000000 86.212 149.7273
494.000000 86.127 149.9389
500.000000 86.048 150.1889
508.000000 85.961 150.6700
515.000000 85.898 151.1761
522.000000 85.831 151.7247
530.000000 85.755 152.4077
538.000000 85.686 152.9084
545.000000 85.635 153.3422
552.000000 85.581 153.8913
560.000000 85.521 154.5616
570.000000 85.434 155.2521
580.000000 85.336 155.8375
590.000000 85.265 156.7840
600.000000 85.257 157.9505
608.000000 85.335 158.6158
615.000000 85.401 159.1028
622.000000 85.318 159.7556
630.000000 85.137 160.6063
640.000000 85.053 160.2773
650.000000 84.852 160.5541
660.000000 84.833 162.1813
670.000000 84.964 163.4722
680.000000 84.963 164.1978
690.000000 84.789 164.8587
700.000000 84.595 165.0965
710.000000 84.555 165.1185
720.000000 84.625 165.8282
730.000000 84.611 166.8963
740.000000 84.568 167.6468
750.000000 84.593 168.0666
762.000000 84.568 168.5784
775.000000 84.503 169.5693
788.000000 84.475 170.8539
800.000000 84.459 171.7674
812.000000 84.452 172.6199
825.000000 84.440 173.6234
838.000000 84.433 174.5449
850.000000 84.439 175.2682
862.000000 84.441 175.9404
875.000000 84.445 176.6965
885.000000 84.453 177.3359
900.000000 84.469 178.3230
912.000000 84.483 178.9828
925.000000 84.506 179.6157
938.000000 84.527 -179.6856
950.000000 84.555 -179.0406
962.000000 84.589 -178.4584
975.000000 84.624 -177.8617
988.000000 84.656 -177.2896
1000.000000 84.683 -176.7938
1015.000000 84.718 -176.2054
1030.000000 84.751 -175.6381
1044.000000 84.779 -175.1326
1060.000000 84.822 -174.5811
1075.000000 84.866 -174.1264
1090.000000 84.904 -173.7463
1106.000000 84.934 -173.3634
1120.000000 84.966 -172.9819
1138.000000 85.023 -172.4864
1150.000000 85.066 -172.2147
1172.000000 85.114 -171.7539
1180.000000 85.125 -171.5668
1206.000000 85.168 -170.9054
1220.000000 85.196 -170.5426
1241.000000 85.248 -170.0780
1250.000000 85.270 -169.8919
1265.000000 85.302 -169.5488
1280.000000 85.330 -169.1734
1315.000000 85.382 -168.2647
1320.000000 85.390 -168.1238
1340.000000 85.421 -167.5982
1360.000000 85.444 -167.1031
1380.000000 85.468 -166.5666
1400.000000 85.499 -166.0204
1430.000000 85.552 -165.2035
1450.000000 85.599 -164.7139
1475.000000 85.664 -164.0995
1500.000000 85.719 -163.4610
1525.000000 85.758 -162.8382
1550.000000 85.796 -162.1895
1575.000000 85.842 -161.5719
1600.000000 85.894 -160.9870
1625.000000 85.947 -160.3873
1650.000000 86.003 -159.8185
1675.000000 86.057 -159.2497
1700.000000 86.102 -158.6699
1725.000000 86.149 -158.1028
1750.000000 86.202 -157.5573
1775.000000 86.259 -157.0040
1800.000000 86.320 -156.4763
1825.000000 86.388 -155.9855
1850.000000 86.456 -155.4931
1875.000000 86.521 -155.0000
1900.000000 86.581 -154.5150
1925.000000 86.637 -154.0215
1950.000000 86.697 -153.5327
1975.000000 86.768 -153.0780
2000.000000 86.847 -152.6496
2030.000000 86.938 -152.1283
2060.000000 87.014 -151.6084
2090.000000 87.081 -151.0987
2120.000000 87.150 -150.6247
2140.000000 87.199 -150.3253
2180.000000 87.303 -149.7433
2200.000000 87.356 -149.4592
2240.000000 87.467 -148.8818
2270.000000 87.552 -148.4376
2300.000000 87.637 -147.9642
2330.000000 87.723 -147.4675
2360.000000 87.814 -146.9851
2400.000000 87.956 -146.4368
2430.000000 88.074 -146.0811
2470.000000 88.218 -145.7214
2500.000000 88.324 -145.5529
2540.000000 88.451 -145.3252
2580.000000 88.567 -144.9698
2620.000000 88.706 -144.5259
2650.000000 88.832 -144.2686
2690.000000 89.001 -144.1391
2720.000000 89.118 -144.2153
2760.000000 89.269 -144.4628
2800.000000 89.411 -144.8008
2850.000000 89.550 -145.3254
2900.000000 89.644 -145.8087
2950.000000 89.715 -146.1212
3000.000000 89.790 -146.2150
3040.000000 89.864 -146.2032
3070.000000 89.931 -146.2144
3110.000000 90.033 -146.3269
3150.000000 90.144 -146.5730
3200.000000 90.283 -147.0418
3250.000000 90.404 -147.6160
3300.000000 90.500 -148.2337
3350.000000 90.579 -148.8796
3400.000000 90.657 -149.5659
3450.000000 90.744 -150.2837
3500.000000 90.834 -151.0482
3550.000000 90.919 -151.9051
3600.000000 90.986 -152.8965
3650.000000 91.030 -154.0634
3700.000000 91.049 -155.4276
3750.000000 91.029 -156.9453
3820.000000 90.907 -159.1199
3870.000000 90.731 -160.4641
3950.000000 90.306 -161.5240
4000.000000 90.032 -161.3034
4060.000000 89.798 -160.4321
4120.000000 89.682 -159.4200
4180.000000 89.638 -158.5875
4250.000000 89.626 -157.8976
4310.000000 89.632 -157.5939
4370.000000 89.640 -157.5738
4440.000000 89.626 -157.7849
4500.000000 89.585 -158.0481
4550.000000 89.531 -158.2839
4620.000000 89.433 -158.5988
4680.000000 89.338 -158.8399
4750.000000 89.227 -159.0968
4820.000000 89.114 -159.3151
4870.000000 89.027 -159.4409
4940.000000 88.895 -159.5699
5000.000000 88.771 -159.6306
5080.000000 88.595 -159.6360
5150.000000 88.440 -159.5690
5220.000000 88.289 -159.4414
5300.000000 88.115 -159.2200
5380.000000 87.934 -158.9196
5450.000000 87.776 -158.5938
5520.000000 87.620 -158.2023
5600.000000 87.450 -157.6777
5700.000000 87.244 -156.9057
5800.000000 87.039 -155.9922
5900.000000 86.848 -154.9649
6000.000000 86.674 -153.8224
6080.000000 86.553 -152.8279
6150.000000 86.462 -151.8945
6220.000000 86.383 -150.9175
6300.000000 86.307 -149.7663
6400.000000 86.234 -148.3194
6500.000000 86.190 -146.9029
6600.000000 86.186 -145.5565
6700.000000 86.211 -144.2833
6800.000000 86.269 -143.0939
6900.000000 86.381 -142.0247
7000.000000 86.543 -141.1043
7100.000000 86.737 -140.3666
7200.000000 86.962 -139.8630
7300.000000 87.221 -139.6521
7400.000000 87.509 -139.8023
7500.000000 87.824 -140.3992
7620.000000 88.237 -141.8660
7750.000000 88.670 -144.5773
7880.000000 88.946 -148.5858
8000.000000 89.014 -153.3581
8120.000000 88.870 -158.8178
8250.000000 88.441 -164.8629
8380.000000 87.739 -170.3027
8500.000000 86.897 -174.2966
8620.000000 85.929 -177.0948
8750.000000 84.802 -178.7883
8850.000000 83.919 -179.2407
9000.000000 82.618 -178.7548
9120.000000 81.612 -177.5229
9250.000000 80.568 -175.4958
9380.000000 79.580 -172.8773
9500.000000 78.722 -170.0264
9620.000000 77.917 -166.8324
9750.000000 77.113 -163.0677
9880.000000 76.374 -159.0494
10000.000000 75.735 -155.1617
10150.000000 74.986 -150.1158
10300.000000 74.293 -144.8925
10440.000000 73.698 -139.8844
10600.000000 73.084 -134.0333
10750.000000 72.571 -128.4379
10900.000000 72.109 -122.7457
11060.000000 71.662 -116.5798
11200.000000 71.303 -111.1082
11380.000000 70.888 -103.9934
11500.000000 70.646 -99.2094
11720.000000 70.279 -90.3465
11800.000000 70.170 -87.0970
12060.000000 69.910 -76.4896
12200.000000 69.824 -70.7521
12410.000000 69.755 -62.1064
12500.000000 69.750 -58.3989
12650.000000 69.778 -52.2244
12800.000000 69.857 -46.0596
13150.000000 70.265 -31.7785
13200.000000 70.352 -29.7611
13400.000000 70.782 -21.7959
13600.000000 71.357 -14.0728
13800.000000 72.106 -6.7430
14000.000000 73.056 -0.0108
14300.000000 74.913 8.3176
14500.000000 76.456 11.9209
14750.000000 78.642 12.5415
15000.000000 80.736 6.3970
15250.000000 82.025 -7.6287
15500.000000 81.971 -24.7140
15750.000000 80.723 -36.8374
16000.000000 78.956 -41.2442
16250.000000 77.290 -39.9874
16500.000000 75.989 -35.5320
16750.000000 75.090 -29.4228
17000.000000 74.579 -22.5669
17250.000000 74.455 -15.6165
17500.000000 74.735 -9.2259
17750.000000 75.417 -4.3184
18000.000000 76.432 -2.3697
18250.000000 77.536 -5.4376
18500.000000 78.257 -14.6577
18750.000000 78.145 -27.2850
19000.000000 77.093 -37.2802
19250.000000 75.329 -40.7675
19500.000000 73.130 -38.0816
19750.000000 70.705 -31.0809
20000.000000 68.167 -21.3061
20300.000000 64.995 -7.2278
20600.000000 61.734 8.6590
20900.000000 58.304 25.3852
21200.000000 54.569 41.0610
21400.000000 51.843 46.5147
21800.000000 45.628 -76.3122
22000.000000 42.044 -111.5173
22400.000000 33.669 -150.0076
22700.000000 26.247 -170.8965
23000.000000 18.285 -110.4629
23300.000000 12.104 25.3750
23600.000000 9.935 -100.3789
24000.000000 9.272 -106.2305
