* Measurement data measured by REW V5.20.13
* Source: Headset (DS by VECLAN.COM), MICROPHONE (Master Volume), L, volume: 0.710. Timing signal peak level -11.8 dBFS, measurement signal peak level -11.5 dBFS
* Format: 2M Log Swept Sine, 1 sweep at -12.0 dBFS using an acoustic timing reference
* Dated: Nov 12, 2023 6:47:27 PM
* REW Settings:
*  C-weighting compensation: Off
*  Target level: 75.0 dB
* Note: ; Delay -0.0609 ms (-21 mm, -0.82 in) using estimated IR delay relative to Acoustic reference played from HEADPHONE L with no timing offset
* Measurement: Kiwi Ears Quartet DU L
* Smoothing: 1/24 octave
* Frequency Step: 1/48 octave
* Start Frequency: 1.000 Hz
*
* Freq(Hz) SPL(dB) Phase(degrees)
1.000000 66.495 14.9084
1.015000 66.737 12.0514
1.030000 66.981 9.2818
1.044000 67.209 6.7876
1.060000 67.469 4.0584
1.075000 67.712 1.6310
1.090000 67.954 -0.6557
1.106000 68.211 -2.9375
1.120000 68.443 -4.8638
1.138000 68.753 -7.2647
1.150000 68.966 -8.8187
1.172000 69.368 -11.5723
1.180000 69.518 -12.5435
1.206000 70.013 -15.5908
1.220000 70.284 -17.1637
1.241000 70.696 -19.4357
1.250000 70.873 -20.3779
1.265000 71.169 -21.9068
1.280000 71.465 -23.3846
1.315000 72.151 -26.6391
1.320000 72.248 -27.0824
1.340000 72.631 -28.8025
1.360000 73.007 -30.4393
1.380000 73.371 -31.9950
1.400000 73.723 -33.4714
1.430000 74.222 -35.5420
1.450000 74.533 -36.8292
1.475000 74.893 -38.3252
1.500000 75.232 -39.6025
1.525000 75.552 -40.6606
1.550000 75.854 -41.5252
1.575000 76.142 -42.2222
1.600000 76.415 -42.7773
1.625000 76.675 -43.2163
1.650000 76.924 -43.5650
1.675000 77.164 -43.8492
1.700000 77.395 -44.0946
1.725000 77.620 -44.3272
1.750000 77.839 -44.5726
1.775000 78.055 -44.8567
1.800000 78.268 -45.2052
1.825000 78.480 -45.6440
1.850000 78.689 -46.1640
1.875000 78.888 -46.6938
1.900000 79.079 -47.2276
1.925000 79.261 -47.7629
1.950000 79.436 -48.2974
1.975000 79.604 -48.8285
2.000000 79.767 -49.3538
2.030000 79.957 -49.9730
2.060000 80.141 -50.5761
2.090000 80.323 -51.1589
2.120000 80.503 -51.7169
2.140000 80.623 -52.0732
2.180000 80.865 -52.7422
2.200000 80.988 -53.0524
2.240000 81.233 -53.6194
2.270000 81.413 -54.0023
2.300000 81.592 -54.3544
2.330000 81.768 -54.6808
2.360000 81.942 -54.9864
2.400000 82.169 -55.3702
2.430000 82.337 -55.6467
2.470000 82.557 -56.0099
2.500000 82.720 -56.2846
2.540000 82.932 -56.6634
2.580000 83.139 -57.0638
2.620000 83.341 -57.4635
2.650000 83.488 -57.7593
2.690000 83.680 -58.1492
2.720000 83.822 -58.4391
2.760000 84.007 -58.8232
2.800000 84.189 -59.2057
2.850000 84.412 -59.6833
2.900000 84.633 -60.1627
2.950000 84.852 -60.6465
3.000000 85.068 -61.1357
3.040000 85.237 -61.5293
3.070000 85.362 -61.8248
3.110000 85.527 -62.2179
3.150000 85.690 -62.6086
3.200000 85.890 -63.0911
3.250000 86.087 -63.5644
3.300000 86.280 -64.0253
3.350000 86.470 -64.4662
3.400000 86.656 -64.8885
3.450000 86.838 -65.3002
3.500000 87.017 -65.7094
3.550000 87.193 -66.1240
3.600000 87.366 -66.5521
3.650000 87.537 -67.0016
3.700000 87.705 -67.4780
3.750000 87.870 -67.9761
3.820000 88.096 -68.6987
3.870000 88.254 -69.2250
3.950000 88.501 -70.0687
4.000000 88.652 -70.5881
4.060000 88.829 -71.1950
4.120000 89.001 -71.7884
4.180000 89.170 -72.3753
4.250000 89.361 -73.0605
4.310000 89.520 -73.6556
4.370000 89.676 -74.2647
4.440000 89.852 -75.0013
4.500000 89.998 -75.6535
4.550000 90.117 -76.2066
4.620000 90.278 -76.9869
4.680000 90.412 -77.6537
4.750000 90.564 -78.4192
4.820000 90.711 -79.1688
4.870000 90.812 -79.7003
4.940000 90.949 -80.4391
5.000000 91.063 -81.0675
5.080000 91.209 -81.8984
5.150000 91.333 -82.6195
5.220000 91.452 -83.3385
5.300000 91.582 -84.1548
5.380000 91.707 -84.9592
5.450000 91.812 -85.6486
5.520000 91.916 -86.3206
5.600000 92.029 -87.0707
5.700000 92.165 -87.9840
5.800000 92.296 -88.8713
5.900000 92.425 -89.7329
6.000000 92.550 -90.5643
6.080000 92.647 -91.2117
6.150000 92.731 -91.7690
6.220000 92.814 -92.3206
6.300000 92.909 -92.9424
6.400000 93.026 -93.7030
6.500000 93.142 -94.4521
6.600000 93.257 -95.1973
6.700000 93.371 -95.9347
6.800000 93.485 -96.6647
6.900000 93.597 -97.3960
7.000000 93.708 -98.1366
7.100000 93.817 -98.8835
7.200000 93.925 -99.6349
7.300000 94.031 -100.3903
7.400000 94.133 -101.1507
7.500000 94.233 -101.9171
7.620000 94.348 -102.8383
7.750000 94.467 -103.8319
7.880000 94.579 -104.8270
8.000000 94.678 -105.7351
8.120000 94.771 -106.6221
8.250000 94.866 -107.5659
8.380000 94.956 -108.4834
8.500000 95.036 -109.2990
8.620000 95.112 -110.0880
8.750000 95.192 -110.9119
8.850000 95.253 -111.5223
9.000000 95.341 -112.3990
9.120000 95.412 -113.0742
9.250000 95.490 -113.7824
9.380000 95.570 -114.4640
9.500000 95.642 -115.0815
9.620000 95.713 -115.6931
9.750000 95.788 -116.3448
9.880000 95.858 -116.9921
10.000000 95.914 -117.5904
10.150000 95.977 -118.3343
10.300000 96.032 -119.0673
10.440000 96.074 -119.7421
10.600000 96.117 -120.5000
10.750000 96.157 -121.1945
10.900000 96.195 -121.8753
11.060000 96.236 -122.5908
11.200000 96.272 -123.2077
11.380000 96.317 -123.9857
11.500000 96.346 -124.4926
11.720000 96.400 -125.4082
11.800000 96.421 -125.7390
12.060000 96.487 -126.8086
12.200000 96.523 -127.3943
12.410000 96.575 -128.2809
12.500000 96.595 -128.6611
12.650000 96.625 -129.2986
12.800000 96.651 -129.9285
13.150000 96.689 -131.3438
13.200000 96.693 -131.5342
13.400000 96.704 -132.2668
13.600000 96.712 -132.9369
13.800000 96.719 -133.5350
14.000000 96.729 -134.0786
14.300000 96.751 -134.8098
14.500000 96.774 -135.2739
14.750000 96.810 -135.8742
15.000000 96.853 -136.5197
15.250000 96.896 -137.2398
15.500000 96.931 -138.0029
15.750000 96.953 -138.7812
16.000000 96.960 -139.5165
16.250000 96.958 -140.1628
16.500000 96.953 -140.7057
16.750000 96.956 -141.1342
17.000000 96.975 -141.5010
17.250000 97.011 -141.8505
17.500000 97.066 -142.2425
17.750000 97.130 -142.7322
18.000000 97.197 -143.3223
18.250000 97.257 -144.0139
18.500000 97.306 -144.7541
18.750000 97.345 -145.5030
19.000000 97.373 -146.2235
19.250000 97.398 -146.8857
19.500000 97.424 -147.5015
19.750000 97.455 -148.0810
20.000000 97.490 -148.6625
20.299999 97.534 -149.3902
20.600000 97.574 -150.1561
20.900000 97.602 -150.9344
21.200001 97.616 -151.6667
21.400000 97.619 -152.0947
21.799999 97.623 -152.7863
22.000000 97.631 -153.0577
22.400000 97.665 -153.5179
22.700001 97.708 -153.8729
23.000000 97.760 -154.3032
23.299999 97.809 -154.8229
23.600000 97.847 -155.4073
24.000000 97.875 -156.2113
24.299999 97.879 -156.7633
24.700001 97.870 -157.3687
25.000000 97.861 -157.7148
25.400000 97.855 -158.0631
25.799999 97.865 -158.3587
26.200001 97.889 -158.6939
26.500000 97.911 -159.0125
26.900000 97.933 -159.5375
27.200001 97.938 -159.9773
27.600000 97.926 -160.5483
28.000000 97.897 -161.0018
28.500000 97.868 -161.3407
29.000000 97.878 -161.5671
29.500000 97.931 -161.9460
30.000000 97.991 -162.6406
30.400000 98.020 -163.3715
30.700001 98.025 -163.9506
31.100000 98.015 -164.6758
31.500000 97.994 -165.3029
32.000000 97.969 -165.9528
32.500000 97.952 -166.5021
33.000000 97.945 -166.9926
33.500000 97.949 -167.4502
34.000000 97.962 -167.9053
34.500000 97.980 -168.3751
35.000000 97.998 -168.8470
35.500000 98.016 -169.3067
36.000000 98.036 -169.7742
36.500000 98.053 -170.2806
37.000000 98.059 -170.8097
37.500000 98.052 -171.2928
38.200001 98.037 -171.8062
38.700001 98.039 -172.1137
39.500000 98.058 -172.7237
40.000000 98.062 -173.1824
40.599998 98.055 -173.7133
41.200001 98.047 -174.1674
41.799999 98.047 -174.5905
42.500000 98.056 -175.1292
43.099998 98.063 -175.6362
43.700001 98.065 -176.1477
44.400002 98.062 -176.7163
45.000000 98.057 -177.1743
45.500000 98.054 -177.5403
46.200001 98.049 -178.0347
46.799999 98.046 -178.4443
47.500000 98.043 -178.9156
48.200001 98.039 -179.3941
48.700001 98.033 -179.7336
49.400002 98.024 179.8199
50.000000 98.017 179.4609
50.799999 98.012 178.9707
51.500000 98.006 178.5270
52.200001 98.000 178.0922
53.000000 97.994 177.5825
53.799999 97.982 177.0519
54.500000 97.968 176.6146
55.200001 97.955 176.2059
56.000000 97.943 175.7498
57.000000 97.931 175.1923
58.000000 97.919 174.5986
59.000000 97.895 174.0306
60.000000 97.872 173.5740
60.799999 97.863 173.2048
61.500000 97.853 172.8539
62.200001 97.839 172.5063
63.000000 97.820 172.1355
64.000000 97.799 171.6966
65.000000 97.782 171.2479
66.000000 97.763 170.7485
67.000000 97.734 170.2401
68.000000 97.701 169.8061
69.000000 97.677 169.4084
70.000000 97.660 168.9857
71.000000 97.645 168.5193
72.000000 97.623 168.0358
73.000000 97.596 167.5959
74.000000 97.571 167.1953
75.000000 97.546 166.7942
76.199997 97.515 166.3074
77.500000 97.477 165.7868
78.800003 97.444 165.2835
80.000000 97.414 164.7979
81.199997 97.384 164.3795
82.500000 97.361 163.9283
83.800003 97.330 163.4631
85.000000 97.291 163.0705
86.199997 97.252 162.7325
87.500000 97.222 162.3431
88.500000 97.204 161.9639
90.000000 97.172 161.3046
91.199997 97.138 160.7687
92.500000 97.090 160.3190
93.800003 97.053 160.0116
95.000000 97.024 159.7088
96.199997 96.988 159.3842
97.500000 96.943 159.0263
98.800003 96.901 158.6495
100.000000 96.863 158.2796
101.500000 96.820 157.8549
103.000000 96.786 157.4570
104.400002 96.751 157.0710
106.000000 96.699 156.6634
107.500000 96.643 156.3020
109.000000 96.590 155.9379
110.599998 96.536 155.5215
112.000000 96.494 155.1655
113.800003 96.443 154.7198
115.000000 96.407 154.4356
117.199997 96.333 153.9592
118.000000 96.306 153.7967
120.599998 96.224 153.2223
122.000000 96.179 152.9034
124.099998 96.118 152.4416
125.000000 96.092 152.2353
126.500000 96.048 151.8851
128.000000 96.001 151.5343
131.500000 95.895 150.8514
132.000000 95.882 150.7642
134.000000 95.831 150.4116
136.000000 95.774 150.0552
138.000000 95.712 149.6967
140.000000 95.649 149.3043
143.000000 95.557 148.7533
145.000000 95.506 148.4345
147.500000 95.440 148.0389
150.000000 95.364 147.6977
152.500000 95.290 147.3553
155.000000 95.215 146.9254
157.500000 95.140 146.5258
160.000000 95.079 146.1447
162.500000 95.009 145.7997
165.000000 94.930 145.5369
167.500000 94.846 145.2429
170.000000 94.761 144.9047
172.500000 94.685 144.6082
175.000000 94.622 144.3427
177.500000 94.554 144.0457
180.000000 94.474 143.7531
182.500000 94.393 143.4741
185.000000 94.307 143.2150
187.500000 94.220 143.0084
190.000000 94.143 142.8200
192.500000 94.077 142.6403
195.000000 94.013 142.4435
197.500000 93.936 142.2336
200.000000 93.851 142.0585
203.000000 93.766 141.8245
206.000000 93.693 141.5416
209.000000 93.614 141.2802
212.000000 93.521 141.0170
214.000000 93.461 140.8557
218.000000 93.362 140.5663
220.000000 93.304 140.4840
224.000000 93.170 140.4048
227.000000 93.076 140.2855
230.000000 92.988 140.1374
233.000000 92.903 140.0458
236.000000 92.829 139.9728
240.000000 92.736 139.8144
243.000000 92.655 139.6482
247.000000 92.538 139.4713
250.000000 92.451 139.3631
254.000000 92.331 139.2115
258.000000 92.226 139.1457
262.000000 92.127 139.1234
265.000000 92.046 139.1130
269.000000 91.940 139.1108
272.000000 91.862 139.0757
276.000000 91.749 139.0224
280.000000 91.644 139.0409
285.000000 91.525 139.1085
290.000000 91.404 139.2303
295.000000 91.289 139.2617
300.000000 91.162 139.2897
304.000000 91.059 139.3770
307.000000 90.987 139.5167
311.000000 90.896 139.7452
315.000000 90.807 139.9376
320.000000 90.695 140.1555
325.000000 90.582 140.3730
330.000000 90.471 140.6276
335.000000 90.355 140.9155
340.000000 90.242 141.2798
345.000000 90.141 141.6902
350.000000 90.053 142.1096
355.000000 89.952 142.6110
360.000000 89.857 143.0899
365.000000 89.776 143.5306
370.000000 89.706 143.9990
375.000000 89.640 144.5083
382.000000 89.559 145.2005
387.000000 89.505 145.6221
395.000000 89.425 146.3937
400.000000 89.368 146.9971
406.000000 89.313 147.6671
412.000000 89.280 148.2880
418.000000 89.260 148.8539
425.000000 89.246 149.4582
431.000000 89.230 150.0259
437.000000 89.215 150.6102
444.000000 89.207 151.2460
450.000000 89.214 151.7250
455.000000 89.216 152.0803
462.000000 89.213 152.5277
468.000000 89.220 152.9113
475.000000 89.233 153.3424
482.000000 89.256 153.6619
487.000000 89.276 153.8269
494.000000 89.294 154.0084
500.000000 89.296 154.1879
508.000000 89.304 154.5326
515.000000 89.321 154.8489
522.000000 89.334 155.0705
530.000000 89.345 155.2488
538.000000 89.356 155.4243
545.000000 89.365 155.5730
552.000000 89.373 155.7056
560.000000 89.382 155.8658
570.000000 89.395 156.0967
580.000000 89.404 156.2864
590.000000 89.409 156.4545
600.000000 89.415 156.6431
608.000000 89.413 156.8211
615.000000 89.410 156.9850
622.000000 89.408 157.1487
630.000000 89.405 157.3135
640.000000 89.404 157.5045
650.000000 89.403 157.7175
660.000000 89.400 157.9395
670.000000 89.399 158.1950
680.000000 89.398 158.4766
690.000000 89.399 158.7463
700.000000 89.402 159.0035
710.000000 89.405 159.2623
720.000000 89.409 159.5437
730.000000 89.413 159.8475
740.000000 89.416 160.1371
750.000000 89.421 160.4077
762.000000 89.422 160.7921
775.000000 89.412 161.3121
788.000000 89.395 162.0949
800.000000 89.423 163.1831
812.000000 89.545 164.2419
825.000000 89.718 164.6835
838.000000 89.825 164.6800
850.000000 89.883 164.8163
862.000000 89.941 165.1022
875.000000 90.012 165.4373
885.000000 90.073 165.6864
900.000000 90.171 166.0511
912.000000 90.253 166.3313
925.000000 90.346 166.6192
938.000000 90.441 166.8924
950.000000 90.531 167.1393
962.000000 90.623 167.3761
975.000000 90.730 167.5861
988.000000 90.843 167.7429
1000.000000 90.949 167.8743
1015.000000 91.082 168.0307
1030.000000 91.215 168.1328
1044.000000 91.341 168.1829
1060.000000 91.484 168.2022
1075.000000 91.616 168.1902
1090.000000 91.757 168.1365
1106.000000 91.919 168.0106
1120.000000 92.066 167.8671
1138.000000 92.249 167.6486
1150.000000 92.369 167.4806
1172.000000 92.587 167.1131
1180.000000 92.666 166.9575
1206.000000 92.922 166.4109
1220.000000 93.060 166.0935
1241.000000 93.268 165.5827
1250.000000 93.357 165.3470
1265.000000 93.504 164.9315
1280.000000 93.647 164.5100
1315.000000 93.967 163.4744
1320.000000 94.011 163.3185
1340.000000 94.182 162.6874
1360.000000 94.330 162.0365
1380.000000 94.472 161.3768
1400.000000 94.622 160.7155
1430.000000 94.851 159.7036
1450.000000 95.000 159.0240
1475.000000 95.184 158.1618
1500.000000 95.362 157.2949
1525.000000 95.534 156.4383
1550.000000 95.699 155.5718
1575.000000 95.862 154.6898
1600.000000 96.021 153.7966
1625.000000 96.176 152.9056
1650.000000 96.329 152.0086
1675.000000 96.481 151.1010
1700.000000 96.630 150.1920
1725.000000 96.777 149.2777
1750.000000 96.924 148.3512
1775.000000 97.070 147.4045
1800.000000 97.211 146.4574
1825.000000 97.348 145.5082
1850.000000 97.486 144.5338
1875.000000 97.626 143.5292
1900.000000 97.763 142.5021
1925.000000 97.894 141.4684
1950.000000 98.020 140.4116
1975.000000 98.142 139.3250
2000.000000 98.262 138.2169
2030.000000 98.402 136.8523
2060.000000 98.533 135.4675
2090.000000 98.655 134.0613
2120.000000 98.767 132.6279
2140.000000 98.837 131.6663
2180.000000 98.961 129.7349
2200.000000 99.015 128.7680
2240.000000 99.109 126.8219
2270.000000 99.165 125.3752
2300.000000 99.209 123.9474
2330.000000 99.243 122.5270
2360.000000 99.268 121.1344
2400.000000 99.287 119.3323
2430.000000 99.292 118.0250
2470.000000 99.287 116.3433
2500.000000 99.279 115.1149
2540.000000 99.258 113.5165
2580.000000 99.221 111.9592
2620.000000 99.171 110.4450
2650.000000 99.125 109.3531
2690.000000 99.052 107.9928
2720.000000 98.991 107.0431
2760.000000 98.905 105.8680
2800.000000 98.816 104.7899
2850.000000 98.705 103.5307
2900.000000 98.590 102.3484
2950.000000 98.474 101.2337
3000.000000 98.355 100.2267
3040.000000 98.254 99.5197
3070.000000 98.178 99.0468
3110.000000 98.078 98.4872
3150.000000 97.987 97.9816
3200.000000 97.889 97.3836
3250.000000 97.801 96.7920
3300.000000 97.716 96.2007
3350.000000 97.634 95.6162
3400.000000 97.553 95.0507
3450.000000 97.477 94.4973
3500.000000 97.409 93.9268
3550.000000 97.341 93.3299
3600.000000 97.265 92.7129
3650.000000 97.181 92.0799
3700.000000 97.091 91.4305
3750.000000 96.993 90.7697
3820.000000 96.832 89.8364
3870.000000 96.694 89.1740
3950.000000 96.428 88.1483
4000.000000 96.232 87.5536
4060.000000 95.953 86.9608
4120.000000 95.627 86.5890
4180.000000 95.257 86.5585
4250.000000 94.784 87.1147
4310.000000 94.355 88.2223
4370.000000 93.919 90.0013
4440.000000 93.445 92.9798
4500.000000 93.112 96.2649
4550.000000 92.917 99.4180
4620.000000 92.802 104.2326
4680.000000 92.869 108.4581
4750.000000 93.148 113.1045
4820.000000 93.615 116.9907
4870.000000 94.030 119.0484
4940.000000 94.663 120.7241
5000.000000 95.201 121.0207
5080.000000 95.830 119.9384
5150.000000 96.240 117.9141
5220.000000 96.488 115.2782
5300.000000 96.560 112.0546
5380.000000 96.428 109.1522
5450.000000 96.185 107.1933
5520.000000 95.863 105.9180
5600.000000 95.453 105.2896
5700.000000 94.930 105.5892
5800.000000 94.428 106.8393
5900.000000 93.969 108.8572
6000.000000 93.573 111.5409
6080.000000 93.313 114.0549
6150.000000 93.128 116.4209
6220.000000 92.982 118.8772
6300.000000 92.856 121.7740
6400.000000 92.752 125.5443
6500.000000 92.711 129.4972
6600.000000 92.737 133.6092
6700.000000 92.840 137.8388
6800.000000 93.036 142.1464
6900.000000 93.355 146.4756
7000.000000 93.808 150.7334
7100.000000 94.395 154.7464
7200.000000 95.107 158.2753
7300.000000 95.926 161.1193
7400.000000 96.842 163.2429
7500.000000 97.887 164.5261
7620.000000 99.328 164.1445
7750.000000 100.903 160.0387
7880.000000 102.068 151.5239
8000.000000 102.516 140.9941
8120.000000 102.300 130.6074
8250.000000 101.514 122.1745
8380.000000 100.492 117.3576
8500.000000 99.579 115.3364
8620.000000 98.791 114.6107
8750.000000 98.079 114.3521
8850.000000 97.598 114.1371
9000.000000 96.901 113.5578
9120.000000 96.299 113.0054
9250.000000 95.570 112.6360
9380.000000 94.768 112.8216
9500.000000 93.996 113.6497
9620.000000 93.230 115.1125
9750.000000 92.456 117.2202
9880.000000 91.765 119.5023
10000.000000 91.192 121.3145
10150.000000 90.503 122.3037
10300.000000 89.593 121.1527
10440.000000 88.103 120.5381
10600.000000 85.431 129.0107
10750.000000 83.187 148.0393
10900.000000 82.807 167.7810
11060.000000 83.519 -177.3948
11200.000000 84.199 -168.5127
11380.000000 84.943 -159.7923
11500.000000 85.380 -154.9107
11720.000000 86.090 -147.3434
11800.000000 86.313 -144.9284
12060.000000 86.960 -137.3413
12200.000000 87.359 -133.4754
12410.000000 87.980 -129.1845
12500.000000 88.199 -127.9480
12650.000000 88.456 -126.3724
12800.000000 88.568 -124.9729
13150.000000 88.393 -120.0669
13200.000000 88.343 -119.0175
13400.000000 88.181 -113.7566
13600.000000 88.237 -107.0259
13800.000000 88.730 -99.9827
14000.000000 89.645 -95.0204
14300.000000 90.783 -94.8943
14500.000000 90.893 -96.2301
14750.000000 90.772 -94.3680
15000.000000 91.149 -90.2253
15250.000000 92.194 -88.6701
15500.000000 93.325 -94.1930
15750.000000 93.562 -106.9054
16000.000000 92.367 -119.2299
16250.000000 90.100 -123.8498
16500.000000 87.555 -120.6065
16750.000000 85.307 -112.4146
17000.000000 83.519 -101.4728
17250.000000 82.154 -88.8553
17500.000000 81.141 -74.7268
17750.000000 80.525 -58.2062
18000.000000 80.956 -38.3438
18250.000000 83.329 -19.1879
18500.000000 86.431 -10.4691
18750.000000 88.780 -14.4886
19000.000000 90.052 -24.0198
19250.000000 90.353 -32.1787
19500.000000 89.999 -36.1551
19750.000000 89.430 -37.0873
20000.000000 88.830 -37.4299
20300.000000 88.035 -38.9729
20600.000000 86.999 -41.7476
20900.000000 85.424 -43.6280
21200.000000 83.284 -41.2464
21400.000000 81.706 -36.7100
21800.000000 78.470 -27.3403
22000.000000 76.449 -42.0400
22400.000000 70.322 -106.5491
22700.000000 63.981 -101.6255
23000.000000 56.719 -1.4082
23300.000000 49.774 89.1309
23600.000000 47.040 177.2070
24000.000000 48.461 43.7422
