* Measurement data measured by REW V5.20.13
* Source: Microphone (Realtek(R) Audio), MICROPHONE (Master Volume), L, volume: 0.710. Timing signal peak level -37.2 dBFS, measurement signal peak level -37.1 dBFS
* Format: 2M Log Swept Sine, 1 sweep at -12.0 dBFS using an acoustic timing reference
* Dated: Sep 7, 2023 4:23:07 PM
* REW Settings:
*  C-weighting compensation: Off
*  Target level: 75.0 dB
* Note: ; Delay -0.0522 ms (-18 mm, -0.71 in) using estimated IR delay relative to Acoustic reference played from HEADPHONE R with no timing offset Clock adjustment: 120.8 ppm
* Measurement: KZ Krila DUUD R
* Smoothing: 1/24 octave
* Frequency Step: 1/48 octave
* Start Frequency: 20.000 Hz
*
* Freq(Hz) SPL(dB) Phase(degrees)
20.000000 95.269 4.9046
20.299999 95.245 4.3838
20.600000 95.217 3.8985
20.900000 95.187 3.4610
21.200001 95.158 3.0750
21.400000 95.141 2.8386
21.799999 95.115 2.3837
22.000000 95.106 2.1466
22.400000 95.092 1.6186
22.700001 95.079 1.1720
23.000000 95.059 0.7016
23.299999 95.032 0.2411
23.600000 94.999 -0.1827
24.000000 94.955 -0.6723
24.299999 94.927 -1.0002
24.700001 94.900 -1.4370
25.000000 94.883 -1.7976
25.400000 94.858 -2.3291
25.799999 94.822 -2.8684
26.200001 94.778 -3.3441
26.500000 94.747 -3.6400
26.900000 94.715 -3.9780
27.200001 94.700 -4.2326
27.600000 94.689 -4.6305
28.000000 94.676 -5.1144
28.500000 94.643 -5.7709
29.000000 94.593 -6.3499
29.500000 94.540 -6.7883
30.000000 94.500 -7.1432
30.400000 94.476 -7.4353
30.700001 94.460 -7.6794
31.100000 94.437 -8.0356
31.500000 94.411 -8.4077
32.000000 94.373 -8.8639
32.500000 94.333 -9.2989
33.000000 94.291 -9.7205
33.500000 94.246 -10.1270
34.000000 94.199 -10.4986
34.500000 94.155 -10.8242
35.000000 94.118 -11.1246
35.500000 94.087 -11.4444
36.000000 94.057 -11.8093
36.500000 94.019 -12.1978
37.000000 93.973 -12.5597
37.500000 93.926 -12.8696
38.200001 93.868 -13.2688
38.700001 93.829 -13.5809
39.500000 93.758 -14.0882
40.000000 93.712 -14.3540
40.599998 93.667 -14.6451
41.200001 93.629 -14.9866
41.799999 93.586 -15.3720
42.500000 93.528 -15.7579
43.099998 93.485 -16.0096
43.700001 93.454 -16.2813
44.400002 93.413 -16.6715
45.000000 93.363 -16.9865
45.500000 93.318 -17.1813
46.200001 93.261 -17.3876
46.799999 93.219 -17.5823
47.500000 93.169 -17.8682
48.200001 93.109 -18.1731
48.700001 93.063 -18.3682
49.400002 93.002 -18.5925
50.000000 92.960 -18.7750
50.799999 92.915 -19.0878
51.500000 92.871 -19.3925
52.200001 92.826 -19.6288
53.000000 92.788 -19.8608
53.799999 92.747 -20.1364
54.500000 92.697 -20.3216
55.200001 92.647 -20.4444
56.000000 92.586 -20.6185
57.000000 92.487 -20.8326
58.000000 92.368 -21.1442
59.000000 92.189 -21.1951
60.000000 92.103 -20.5962
60.799999 92.148 -20.6260
61.500000 92.164 -21.1959
62.200001 92.130 -21.7759
63.000000 92.080 -22.2107
64.000000 92.025 -22.6063
65.000000 91.968 -22.7928
66.000000 91.927 -22.8812
67.000000 91.878 -23.0107
68.000000 91.813 -23.1273
69.000000 91.737 -23.2232
70.000000 91.665 -23.3166
71.000000 91.599 -23.5003
72.000000 91.523 -23.7127
73.000000 91.450 -23.8246
74.000000 91.393 -23.9037
75.000000 91.339 -24.0025
76.199997 91.271 -24.0635
77.500000 91.207 -24.1077
78.800003 91.137 -24.2542
80.000000 91.060 -24.3785
81.199997 90.985 -24.4489
82.500000 90.911 -24.5174
83.800003 90.835 -24.5757
85.000000 90.772 -24.5315
86.199997 90.726 -24.5386
87.500000 90.665 -24.6360
88.500000 90.613 -24.6650
90.000000 90.540 -24.7264
91.199997 90.474 -24.7724
92.500000 90.411 -24.7307
93.800003 90.365 -24.7274
95.000000 90.320 -24.8103
96.199997 90.257 -24.8631
97.500000 90.188 -24.7916
98.800003 90.128 -24.7111
100.000000 90.072 -24.7005
101.500000 89.994 -24.6928
103.000000 89.928 -24.6636
104.400002 89.872 -24.6514
106.000000 89.805 -24.5000
107.500000 89.760 -24.2943
109.000000 89.705 -24.2861
110.599998 89.612 -24.3284
112.000000 89.536 -24.3567
113.800003 89.460 -24.3826
115.000000 89.424 -24.2846
117.199997 89.390 -23.7748
118.000000 89.381 -23.5356
120.599998 89.331 -23.1566
122.000000 89.246 -23.2357
124.099998 89.115 -23.3110
125.000000 89.074 -23.3590
126.500000 89.022 -23.4084
128.000000 88.983 -23.3747
131.500000 88.872 -23.1006
132.000000 88.854 -23.0480
134.000000 88.793 -22.9025
136.000000 88.740 -22.8138
138.000000 88.691 -22.6635
140.000000 88.639 -22.4495
143.000000 88.552 -22.1683
145.000000 88.496 -22.0389
147.500000 88.434 -21.8421
150.000000 88.375 -21.6058
152.500000 88.317 -21.3739
155.000000 88.262 -21.1990
157.500000 88.203 -20.9668
160.000000 88.156 -20.6640
162.500000 88.117 -20.4633
165.000000 88.064 -20.2935
167.500000 88.012 -20.0489
170.000000 87.956 -19.7816
172.500000 87.902 -19.5009
175.000000 87.857 -19.2386
177.500000 87.811 -19.0298
180.000000 87.751 -18.8346
182.500000 87.679 -18.6341
185.000000 87.613 -18.3796
187.500000 87.573 -18.1261
190.000000 87.544 -17.9526
192.500000 87.498 -17.7255
195.000000 87.442 -17.3857
197.500000 87.386 -17.0762
200.000000 87.339 -16.8221
203.000000 87.307 -16.5064
206.000000 87.284 -16.1865
209.000000 87.248 -15.8998
212.000000 87.209 -15.6117
214.000000 87.189 -15.4028
218.000000 87.146 -15.0457
220.000000 87.117 -14.8983
224.000000 87.060 -14.5156
227.000000 87.020 -14.1863
230.000000 86.977 -13.8423
233.000000 86.949 -13.5142
236.000000 86.927 -13.2077
240.000000 86.875 -12.7784
243.000000 86.822 -12.5013
247.000000 86.765 -12.1271
250.000000 86.733 -11.8105
254.000000 86.700 -11.3927
258.000000 86.677 -11.0511
262.000000 86.650 -10.7613
265.000000 86.626 -10.5301
269.000000 86.595 -10.2007
272.000000 86.579 -9.9624
276.000000 86.560 -9.6372
280.000000 86.527 -9.2967
285.000000 86.485 -8.8272
290.000000 86.447 -8.3129
295.000000 86.414 -7.8514
300.000000 86.393 -7.5217
304.000000 86.379 -7.1574
307.000000 86.370 -6.8864
311.000000 86.346 -6.5726
315.000000 86.316 -6.2266
320.000000 86.290 -5.7416
325.000000 86.269 -5.2379
330.000000 86.245 -4.7185
335.000000 86.225 -4.2963
340.000000 86.209 -3.9748
345.000000 86.203 -3.6070
350.000000 86.181 -3.1927
355.000000 86.142 -2.7673
360.000000 86.103 -2.3146
365.000000 86.081 -1.8449
370.000000 86.063 -1.4818
375.000000 86.062 -1.1305
382.000000 86.064 -0.5631
387.000000 86.042 -0.1226
395.000000 86.006 0.4968
400.000000 85.985 0.8648
406.000000 85.967 1.3427
412.000000 85.956 1.8474
418.000000 85.943 2.4166
425.000000 85.924 2.9543
431.000000 85.906 3.3176
437.000000 85.891 3.6957
444.000000 85.883 4.1473
450.000000 85.875 4.5456
455.000000 85.866 4.9008
462.000000 85.851 5.4226
468.000000 85.835 5.9085
475.000000 85.824 6.5439
482.000000 85.819 7.0926
487.000000 85.811 7.3653
494.000000 85.802 7.7861
500.000000 85.794 8.2232
508.000000 85.782 8.7315
515.000000 85.780 9.1687
522.000000 85.779 9.6988
530.000000 85.778 10.3574
538.000000 85.785 10.9588
545.000000 85.783 11.4007
552.000000 85.776 11.8930
560.000000 85.779 12.4707
570.000000 85.791 13.0672
580.000000 85.801 13.7284
590.000000 85.808 14.3974
600.000000 85.814 15.0454
608.000000 85.824 15.6259
615.000000 85.838 16.0949
622.000000 85.859 16.5231
630.000000 85.884 17.0244
640.000000 85.904 17.5769
650.000000 85.937 17.9744
660.000000 85.987 18.1956
670.000000 86.021 18.0989
680.000000 85.984 17.5018
690.000000 85.779 16.8019
700.000000 85.420 17.4376
710.000000 85.172 19.8416
720.000000 85.171 22.4549
730.000000 85.291 24.3158
740.000000 85.414 25.5113
750.000000 85.510 26.3939
762.000000 85.588 27.2530
775.000000 85.642 28.0524
788.000000 85.695 29.0511
800.000000 85.748 30.0258
812.000000 85.801 30.8944
825.000000 85.854 31.8573
838.000000 85.911 32.7966
850.000000 85.968 33.6152
862.000000 86.026 34.4190
875.000000 86.100 35.3258
885.000000 86.163 36.0193
900.000000 86.262 36.9582
912.000000 86.325 37.7340
925.000000 86.386 38.5962
938.000000 86.465 39.3544
950.000000 86.541 40.0074
962.000000 86.614 40.7043
975.000000 86.695 41.4866
988.000000 86.778 42.1950
1000.000000 86.852 42.8039
1015.000000 86.948 43.5817
1030.000000 87.048 44.2652
1044.000000 87.141 44.8683
1060.000000 87.248 45.5859
1075.000000 87.345 46.1559
1090.000000 87.449 46.6095
1106.000000 87.571 47.1118
1120.000000 87.680 47.5953
1138.000000 87.814 48.1908
1150.000000 87.900 48.5488
1172.000000 88.061 49.1242
1180.000000 88.118 49.3194
1206.000000 88.304 49.9768
1220.000000 88.396 50.3443
1241.000000 88.535 50.8161
1250.000000 88.595 50.9911
1265.000000 88.691 51.2659
1280.000000 88.784 51.5506
1315.000000 89.007 52.2764
1320.000000 89.036 52.3697
1340.000000 89.142 52.7235
1360.000000 89.231 53.0725
1380.000000 89.319 53.4362
1400.000000 89.420 53.8212
1430.000000 89.573 54.3767
1450.000000 89.668 54.6969
1475.000000 89.786 55.1583
1500.000000 89.911 55.6317
1525.000000 90.029 56.1026
1550.000000 90.136 56.5715
1575.000000 90.246 57.0413
1600.000000 90.358 57.5026
1625.000000 90.471 57.9153
1650.000000 90.580 58.3572
1675.000000 90.689 58.8329
1700.000000 90.800 59.2746
1725.000000 90.909 59.6997
1750.000000 91.015 60.1065
1775.000000 91.118 60.5220
1800.000000 91.222 60.9468
1825.000000 91.331 61.3302
1850.000000 91.442 61.6947
1875.000000 91.554 62.0681
1900.000000 91.665 62.4517
1925.000000 91.780 62.8139
1950.000000 91.898 63.1379
1975.000000 92.021 63.4244
2000.000000 92.142 63.6822
2030.000000 92.279 63.9299
2060.000000 92.413 64.1380
2090.000000 92.545 64.3577
2120.000000 92.676 64.5439
2140.000000 92.761 64.6517
2180.000000 92.933 64.8635
2200.000000 93.020 64.9402
2240.000000 93.188 65.0299
2270.000000 93.308 65.0415
2300.000000 93.424 65.0377
2330.000000 93.538 65.0201
2360.000000 93.647 64.9702
2400.000000 93.786 64.8675
2430.000000 93.885 64.7687
2470.000000 94.009 64.6178
2500.000000 94.100 64.4859
2540.000000 94.212 64.2747
2580.000000 94.314 64.0409
2620.000000 94.408 63.8070
2650.000000 94.475 63.6208
2690.000000 94.557 63.3627
2720.000000 94.610 63.1635
2760.000000 94.671 62.9072
2800.000000 94.722 62.6684
2850.000000 94.777 62.3910
2900.000000 94.817 62.1790
2950.000000 94.847 62.1048
3000.000000 94.878 62.2009
3040.000000 94.912 62.4134
3070.000000 94.953 62.6214
3110.000000 95.035 62.8877
3150.000000 95.147 63.0411
3200.000000 95.303 62.9450
3250.000000 95.449 62.5386
3300.000000 95.567 61.9730
3350.000000 95.664 61.3401
3400.000000 95.750 60.6308
3450.000000 95.827 59.8451
3500.000000 95.893 59.0037
3550.000000 95.940 58.1065
3600.000000 95.964 57.1852
3650.000000 95.967 56.2734
3700.000000 95.955 55.3674
3750.000000 95.931 54.4671
3820.000000 95.875 53.2447
3870.000000 95.816 52.4042
3950.000000 95.690 51.1014
4000.000000 95.593 50.3251
4060.000000 95.460 49.4285
4120.000000 95.311 48.5881
4180.000000 95.144 47.7941
4250.000000 94.924 46.9266
4310.000000 94.710 46.2706
4370.000000 94.465 45.7395
4440.000000 94.155 45.3265
4500.000000 93.879 45.1763
4550.000000 93.644 45.1709
4620.000000 93.314 45.3255
4680.000000 93.038 45.6166
4750.000000 92.724 46.1099
4820.000000 92.419 46.7068
4870.000000 92.203 47.1714
4940.000000 91.901 47.8747
5000.000000 91.640 48.5573
5080.000000 91.292 49.6110
5150.000000 90.987 50.6829
5220.000000 90.686 51.9080
5300.000000 90.350 53.4995
5380.000000 90.028 55.2953
5450.000000 89.763 57.0188
5520.000000 89.512 58.8405
5600.000000 89.246 61.0259
5700.000000 88.947 63.9367
5800.000000 88.687 67.0325
5900.000000 88.469 70.2847
6000.000000 88.295 73.6676
6080.000000 88.185 76.4391
6150.000000 88.112 78.8960
6220.000000 88.060 81.3831
6300.000000 88.027 84.2723
6400.000000 88.030 87.9566
6500.000000 88.081 91.6625
6600.000000 88.183 95.3424
6700.000000 88.352 99.0248
6800.000000 88.591 102.6868
6900.000000 88.916 106.2323
7000.000000 89.335 109.6022
7100.000000 89.845 112.7576
7200.000000 90.441 115.5914
7300.000000 91.127 117.9715
7400.000000 91.914 119.7084
7500.000000 92.802 120.5198
7620.000000 93.985 119.7870
7750.000000 95.283 116.1032
7880.000000 96.282 108.7030
8000.000000 96.694 99.0171
8120.000000 96.475 88.5483
8250.000000 95.580 79.1413
8380.000000 94.260 73.3624
8500.000000 92.915 71.1511
8620.000000 91.608 71.2002
8750.000000 90.300 72.9879
8850.000000 89.371 75.2392
9000.000000 88.098 80.0016
9120.000000 87.252 84.8259
9250.000000 86.545 90.2241
9380.000000 85.975 95.4784
9500.000000 85.531 100.3056
9620.000000 85.161 105.1478
9750.000000 84.850 110.3466
9880.000000 84.631 115.4008
10000.000000 84.497 119.8780
10150.000000 84.410 125.1562
10300.000000 84.403 130.0053
10440.000000 84.451 134.0609
10600.000000 84.553 138.0838
10750.000000 84.665 141.2609
10900.000000 84.768 143.9165
11060.000000 84.854 146.3733
11200.000000 84.907 148.4162
11380.000000 84.991 151.1266
11500.000000 85.084 152.9130
11720.000000 85.325 155.7379
11800.000000 85.429 156.6083
12060.000000 85.851 158.8213
12200.000000 86.127 159.3933
12410.000000 86.539 158.9857
12500.000000 86.687 158.2873
12650.000000 86.851 156.4798
12800.000000 86.865 154.1215
13150.000000 86.205 149.3779
13200.000000 86.042 149.0667
13400.000000 85.309 149.1517
13600.000000 84.585 151.3479
13800.000000 84.017 155.0979
14000.000000 83.680 159.4933
14300.000000 83.558 165.0777
14500.000000 83.536 166.8386
14750.000000 83.148 167.0375
15000.000000 82.101 169.3396
15250.000000 81.071 176.1755
15500.000000 80.461 -175.7588
15750.000000 80.325 -168.1638
16000.000000 80.472 -162.8564
16250.000000 80.661 -160.5331
16500.000000 80.636 -161.3220
16750.000000 80.265 -163.8830
17000.000000 79.605 -167.1902
17250.000000 78.836 -173.9759
17500.000000 78.184 148.5544
17750.000000 77.875 -38.9446
18000.000000 77.764 -157.2682
18250.000000 76.930 -145.0581
18500.000000 75.575 100.3110
18750.000000 74.162 -117.6245
19000.000000 73.042 100.9426
19250.000000 72.667 -18.0376
19500.000000 72.867 -170.0215
19750.000000 73.289 96.6685
20000.000000 73.750 -35.7373
