* Measurement data measured by REW V5.20.13
* Source: Microphone (Realtek(R) Audio), MICROPHONE (Master Volume), L, volume: 0.710. Timing signal peak level -37.5 dBFS, measurement signal peak level -37.4 dBFS
* Format: 2M Log Swept Sine, 1 sweep at -12.0 dBFS using an acoustic timing reference
* Dated: Sep 7, 2023 4:15:39 PM
* REW Settings:
*  C-weighting compensation: Off
*  Target level: 75.0 dB
* Note: ; Delay -0.0535 ms (-18 mm, -0.72 in) using estimated IR delay relative to Acoustic reference played from HEADPHONE R with no timing offset Clock adjustment: 120.6 ppm
* Measurement: KZ Krila UDDU R
* Smoothing: 1/48 octave
* Frequency Step: 1/96 octave
* Start Frequency: 20.000 Hz
*
* Freq(Hz) SPL(dB) Phase(degrees)
20.000000 91.725 11.7939
20.144928 91.720 11.6013
20.290907 91.717 11.4062
20.437943 91.714 11.2093
20.586044 91.711 11.0101
20.735220 91.708 10.8092
20.885475 91.704 10.6019
21.036821 91.701 10.3843
21.189262 91.696 10.1620
21.342808 91.689 9.9399
21.497467 91.680 9.7171
21.653246 91.670 9.5045
21.810154 91.658 9.3037
21.968201 91.645 9.1125
22.127390 91.633 8.9308
22.287735 91.622 8.7587
22.449242 91.612 8.5975
22.611917 91.604 8.4462
22.775772 91.597 8.2926
22.940815 91.592 8.1383
23.107054 91.588 7.9724
23.274498 91.584 7.7900
23.443153 91.580 7.5981
23.613033 91.574 7.3974
23.784142 91.566 7.1929
23.956491 91.556 6.9903
24.130091 91.544 6.7927
24.304947 91.531 6.6113
24.481071 91.516 6.4453
24.658470 91.503 6.3023
24.837156 91.490 6.1791
25.017136 91.480 6.0627
25.198421 91.473 5.9532
25.381020 91.468 5.8362
25.564941 91.467 5.7120
25.750195 91.467 5.5702
25.936790 91.467 5.4113
26.124741 91.467 5.2315
26.314051 91.465 5.0339
26.504732 91.460 4.8334
26.696796 91.454 4.6308
26.890253 91.445 4.4366
27.085112 91.435 4.2497
27.281382 91.424 4.0724
27.479073 91.413 3.9029
27.678198 91.403 3.7420
27.878765 91.394 3.5819
28.080786 91.386 3.4186
28.284271 91.377 3.2508
28.489231 91.368 3.0778
28.695675 91.359 2.9060
28.903616 91.348 2.7360
29.113064 91.337 2.5712
29.324028 91.325 2.4131
29.536524 91.314 2.2647
29.750557 91.304 2.1216
29.966141 91.294 1.9828
30.183289 91.284 1.8393
30.402010 91.274 1.6922
30.622314 91.263 1.5416
30.844217 91.251 1.3912
31.067726 91.238 1.2424
31.292856 91.224 1.1020
31.519617 91.210 0.9727
31.748020 91.197 0.8597
31.978081 91.185 0.7567
32.209808 91.176 0.6602
32.443211 91.169 0.5603
32.678310 91.164 0.4501
32.915108 91.160 0.3244
33.153625 91.156 0.1767
33.393871 91.149 0.0127
33.635857 91.140 -0.1633
33.879597 91.128 -0.3407
34.125103 91.114 -0.5137
34.372387 91.097 -0.6768
34.621464 91.078 -0.8203
34.872345 91.057 -0.9437
35.125042 91.037 -1.0463
35.379574 91.019 -1.1309
35.635948 91.003 -1.2016
35.894180 90.989 -1.2636
36.154285 90.979 -1.3269
36.416275 90.971 -1.4014
36.680161 90.965 -1.4935
36.945961 90.961 -1.6092
37.213688 90.955 -1.7514
37.483353 90.948 -1.9117
37.754974 90.937 -2.0812
38.028561 90.923 -2.2489
38.304131 90.906 -2.4049
38.581699 90.889 -2.5461
38.861279 90.872 -2.6734
39.142883 90.857 -2.7930
39.426529 90.842 -2.9133
39.712231 90.828 -3.0360
40.000000 90.813 -3.1594
40.289856 90.797 -3.2780
40.581814 90.780 -3.3813
40.875885 90.764 -3.4638
41.172089 90.749 -3.5285
41.470440 90.738 -3.5823
41.770950 90.729 -3.6348
42.073643 90.723 -3.6960
42.378525 90.718 -3.7710
42.685616 90.713 -3.8593
42.994934 90.709 -3.9608
43.306492 90.703 -4.0759
43.620308 90.694 -4.2043
43.936401 90.682 -4.3418
44.254780 90.665 -4.4766
44.575470 90.643 -4.5889
44.898483 90.619 -4.6646
45.223835 90.599 -4.7067
45.551544 90.585 -4.7382
45.881630 90.578 -4.7957
46.214108 90.574 -4.9112
46.548996 90.566 -5.0898
46.886307 90.548 -5.2970
47.226067 90.520 -5.4739
47.568283 90.488 -5.5713
47.912983 90.464 -5.5854
48.260181 90.455 -5.5734
48.609894 90.461 -5.6077
48.962143 90.472 -5.7415
49.316940 90.477 -5.9640
49.674313 90.466 -6.2042
50.034271 90.444 -6.3770
50.396843 90.422 -6.4431
50.762039 90.411 -6.4382
51.129883 90.414 -6.4465
51.500389 90.420 -6.5314
51.873581 90.416 -6.6795
52.249481 90.395 -6.8064
52.628101 90.365 -6.8255
53.009464 90.341 -6.7303
53.393593 90.334 -6.6127
53.780506 90.337 -6.5881
54.170223 90.334 -6.6909
54.562763 90.310 -6.8421
54.958145 90.270 -6.9250
55.356396 90.232 -6.9034
55.757530 90.211 -6.8651
56.161572 90.201 -6.9350
56.568542 90.184 -7.1346
56.978462 90.150 -7.3505
57.391350 90.117 -7.4747
57.807232 90.109 -7.5774
58.226128 90.129 -7.8939
58.648056 90.135 -8.5760
59.073048 90.075 -9.4546
59.501114 89.934 -10.0525
59.932281 89.764 -9.9300
60.366577 89.664 -9.1159
60.804020 89.693 -8.1694
61.244629 89.814 -7.7029
61.688435 89.936 -7.8942
62.135452 89.993 -8.4137
62.585712 89.989 -8.8085
63.039234 89.968 -8.8998
63.496040 89.965 -8.8167
63.956161 89.979 -8.7609
64.419617 89.988 -8.7850
64.886421 89.983 -8.8164
65.356621 89.970 -8.8091
65.830215 89.956 -8.7865
66.307251 89.938 -8.7737
66.787743 89.915 -8.7572
67.271713 89.894 -8.7329
67.759193 89.877 -8.7403
68.250206 89.858 -8.8078
68.744774 89.833 -8.8990
69.242928 89.805 -8.9524
69.744690 89.787 -8.9704
70.250084 89.783 -9.0287
70.759148 89.783 -9.1877
71.271896 89.773 -9.4188
71.788361 89.746 -9.6200
72.308571 89.712 -9.7066
72.832550 89.684 -9.6753
73.360321 89.672 -9.6035
73.891922 89.671 -9.5751
74.427376 89.668 -9.6140
74.966705 89.656 -9.6776
75.509949 89.638 -9.7142
76.057121 89.618 -9.7145
76.608261 89.601 -9.7026
77.163399 89.589 -9.7095
77.722557 89.579 -9.7621
78.285767 89.563 -9.8565
78.853058 89.540 -9.9409
79.424461 89.515 -9.9691
80.000000 89.498 -9.9612
80.579712 89.490 -9.9786
81.163628 89.481 -10.0352
81.751770 89.467 -10.0835
82.344177 89.453 -10.0994
82.940880 89.441 -10.1054
83.541901 89.429 -10.1141
84.147285 89.417 -10.1199
84.757050 89.406 -10.1402
85.371231 89.392 -10.1936
85.989868 89.370 -10.2466
86.612984 89.345 -10.2487
87.240616 89.327 -10.2273
87.872803 89.316 -10.2567
88.509560 89.300 -10.3413
89.150940 89.276 -10.3998
89.796967 89.255 -10.3999
90.447670 89.244 -10.4028
91.103088 89.231 -10.4455
91.763260 89.212 -10.4613
92.428215 89.196 -10.4074
93.097992 89.192 -10.3490
93.772614 89.191 -10.3595
94.452133 89.184 -10.4213
95.136566 89.169 -10.4880
95.825966 89.150 -10.5578
96.520363 89.128 -10.6357
97.219788 89.103 -10.7081
97.924286 89.077 -10.7695
98.633881 89.052 -10.8184
99.348625 89.027 -10.8330
100.068542 89.010 -10.8112
100.793686 89.002 -10.8072
101.524078 88.990 -10.8332
102.259766 88.975 -10.8045
103.000778 88.971 -10.7220
103.747162 88.979 -10.7203
104.498962 88.979 -10.8261
105.256203 88.964 -10.9396
106.018929 88.941 -11.0266
106.787186 88.913 -11.0694
107.561012 88.890 -11.0429
108.340446 88.877 -11.0327
109.125526 88.859 -11.0824
109.916290 88.827 -11.0741
110.712791 88.793 -10.9399
111.515060 88.772 -10.7535
112.323143 88.759 -10.6038
113.137085 88.748 -10.5215
113.956924 88.736 -10.5205
114.782700 88.722 -10.6116
115.614464 88.706 -10.7628
116.452255 88.691 -10.9687
117.296112 88.674 -11.1517
118.146095 88.683 -11.2261
119.002228 88.726 -11.5316
119.864563 88.712 -12.1171
120.733154 88.622 -12.2144
121.608040 88.572 -11.6893
122.489258 88.584 -11.2111
123.376869 88.599 -10.9572
124.270905 88.600 -10.8724
125.171425 88.571 -10.9079
126.078468 88.523 -10.8668
126.992081 88.488 -10.7958
127.912323 88.466 -10.7735
128.839233 88.461 -10.7898
129.772842 88.463 -10.9201
130.713242 88.447 -11.0466
131.660431 88.426 -11.0087
132.614502 88.415 -10.8894
133.575485 88.405 -10.7723
134.543427 88.395 -10.6684
135.518387 88.383 -10.6095
136.500412 88.366 -10.5877
137.489548 88.349 -10.5557
138.485855 88.341 -10.5567
139.489380 88.332 -10.6379
140.500168 88.310 -10.7002
141.518295 88.287 -10.6602
142.543793 88.275 -10.5571
143.576721 88.274 -10.4792
144.617142 88.270 -10.4545
145.665100 88.260 -10.4403
146.720642 88.244 -10.4108
147.783844 88.226 -10.3613
148.854752 88.205 -10.3176
149.933411 88.183 -10.2780
151.019897 88.161 -10.2852
152.114243 88.133 -10.2902
153.216522 88.117 -10.2437
154.326797 88.115 -10.2497
155.445114 88.113 -10.2666
156.571533 88.112 -10.2557
157.706116 88.109 -10.2037
158.848923 88.101 -10.1556
160.000000 88.082 -10.0856
161.159424 88.067 -10.0204
162.327255 88.046 -10.0872
163.503540 88.008 -10.1516
164.688354 87.975 -10.1022
165.881760 87.963 -10.0258
167.083801 87.957 -9.9939
168.294571 87.944 -9.9534
169.514099 87.929 -9.8686
170.742462 87.917 -9.7993
171.979736 87.902 -9.7801
173.225967 87.886 -9.7603
174.481232 87.872 -9.7285
175.745605 87.860 -9.6807
177.019119 87.841 -9.5967
178.301880 87.815 -9.4382
179.593933 87.790 -9.2587
180.895340 87.770 -9.1474
182.206177 87.749 -9.1787
183.526520 87.721 -9.2665
184.856430 87.693 -9.3063
186.195984 87.674 -9.2732
187.545227 87.660 -9.1678
188.904266 87.656 -9.0595
190.273132 87.646 -9.0553
191.651932 87.620 -9.0747
193.040726 87.594 -9.0495
194.439575 87.575 -8.9684
195.848572 87.564 -8.8151
197.267761 87.557 -8.6421
198.697250 87.540 -8.4826
200.137085 87.516 -8.3608
201.587372 87.490 -8.3297
203.048157 87.465 -8.3574
204.519531 87.451 -8.3386
206.001556 87.456 -8.2834
207.494324 87.458 -8.2267
208.997925 87.438 -8.0980
210.512405 87.408 -7.9111
212.037857 87.381 -7.8116
213.574371 87.357 -7.8513
215.122025 87.338 -7.9270
216.680893 87.324 -7.9512
218.251053 87.309 -7.8430
219.832581 87.294 -7.6286
221.425583 87.279 -7.4433
223.030121 87.260 -7.3640
224.646286 87.242 -7.3561
226.274170 87.231 -7.3335
227.913849 87.229 -7.2669
229.565399 87.222 -7.1633
231.228928 87.205 -7.0548
232.904510 87.181 -7.0034
234.592224 87.159 -6.9839
236.292191 87.154 -6.9435
238.004456 87.169 -6.8952
239.729126 87.177 -6.8881
241.466309 87.149 -6.8319
243.216080 87.104 -6.6291
244.978516 87.072 -6.4311
246.753738 87.051 -6.3098
248.541809 87.038 -6.1948
250.342850 87.030 -6.0422
252.156937 87.021 -5.9037
253.984161 87.003 -5.7958
255.824646 86.982 -5.7039
257.678467 86.963 -5.6262
259.545685 86.946 -5.5459
261.426483 86.925 -5.4522
263.320862 86.904 -5.3149
265.229004 86.893 -5.1714
267.150970 86.888 -5.0629
269.086853 86.880 -4.9645
271.036774 86.862 -4.8381
273.000824 86.836 -4.6575
274.979095 86.809 -4.5051
276.971710 86.779 -4.4015
278.978760 86.752 -4.2999
281.000336 86.739 -4.1794
283.036591 86.742 -4.0506
285.087585 86.755 -3.9276
287.153442 86.760 -3.8342
289.234283 86.747 -3.7182
291.330200 86.727 -3.6192
293.441284 86.702 -3.5392
295.567688 86.679 -3.3725
297.709503 86.668 -3.1136
299.866821 86.663 -2.8650
302.039795 86.657 -2.7373
304.228485 86.642 -2.7013
306.433044 86.631 -2.6244
308.653595 86.632 -2.4993
310.890228 86.628 -2.3368
313.143066 86.614 -2.1428
315.412231 86.592 -1.9987
317.697845 86.568 -1.9215
320.000000 86.553 -1.8568
322.318848 86.548 -1.7710
324.654510 86.543 -1.6537
327.007080 86.531 -1.4944
329.376709 86.513 -1.2947
331.763519 86.501 -1.0392
334.167603 86.499 -0.8340
336.589142 86.494 -0.6895
339.028198 86.488 -0.5650
341.484924 86.471 -0.4804
343.959473 86.440 -0.3605
346.451935 86.418 -0.2091
348.962463 86.413 -0.0666
351.491211 86.416 0.0669
354.038239 86.410 0.1443
356.603760 86.388 0.1592
359.187866 86.357 0.2138
361.790680 86.337 0.4534
364.412354 86.339 0.8279
367.053040 86.350 1.1465
369.712860 86.354 1.3430
372.391968 86.348 1.5160
375.090454 86.337 1.7181
377.808533 86.322 1.8814
380.546265 86.306 1.9970
383.303864 86.295 2.1232
386.081451 86.284 2.2916
388.879150 86.267 2.5122
391.697144 86.250 2.7342
394.535522 86.233 2.9532
397.394501 86.222 3.1517
400.274170 86.218 3.2861
403.174744 86.210 3.3971
406.096313 86.199 3.5859
409.039062 86.193 3.8218
412.003113 86.189 4.0696
414.988647 86.188 4.2986
417.995850 86.193 4.4430
421.024811 86.183 4.5683
424.075714 86.145 4.7949
427.148743 86.109 5.0277
430.244049 86.096 5.1812
433.361786 86.096 5.3428
436.502106 86.091 5.5658
439.665161 86.083 5.8105
442.851166 86.082 6.0582
446.060242 86.083 6.2470
449.292572 86.079 6.4298
452.548340 86.069 6.6620
455.827698 86.048 6.8805
459.130798 86.039 7.0476
462.457855 86.048 7.2244
465.809021 86.039 7.4926
469.184448 86.011 7.7917
472.584381 85.987 8.0379
476.008911 85.968 8.2586
479.458252 85.953 8.3967
482.932617 85.954 8.5118
486.432159 85.963 8.7409
489.957031 85.962 9.0317
493.507477 85.957 9.2857
497.083618 85.958 9.4893
500.685699 85.963 9.6630
504.313873 85.960 9.8762
507.968323 85.952 10.1687
511.649292 85.944 10.4430
515.356934 85.937 10.6461
519.091370 85.935 10.8180
522.852966 85.936 11.0229
526.641724 85.929 11.2868
530.458008 85.914 11.6033
534.301941 85.908 11.9642
538.173706 85.913 12.3920
542.073547 85.910 12.7132
546.001648 85.896 12.8269
549.958191 85.890 12.9136
553.943420 85.892 13.0799
557.957520 85.900 13.3063
562.000671 85.903 13.6040
566.073181 85.901 13.8975
570.175171 85.898 14.1411
574.306885 85.898 14.3682
578.468567 85.901 14.6333
582.660400 85.902 14.9583
586.882568 85.909 15.2362
591.135376 85.910 15.4083
595.419006 85.902 15.6036
599.733643 85.904 15.8571
604.079590 85.917 16.2101
608.456970 85.927 16.6168
612.866089 85.926 16.9332
617.307190 85.926 17.1299
621.780457 85.937 17.2995
626.286133 85.949 17.4999
630.824463 85.954 17.7829
635.395691 85.961 18.1343
640.000000 85.975 18.3791
644.637695 85.998 18.5404
649.309021 86.019 18.6664
654.014160 86.027 18.8099
658.753418 86.022 18.9634
663.527039 86.035 19.0377
668.335205 86.072 19.0122
673.178284 86.099 18.8519
678.056396 86.103 18.4904
682.969849 86.075 17.9167
687.918945 85.975 17.2533
692.903870 85.773 16.8416
697.924927 85.502 17.0921
702.982422 85.251 18.2296
708.076477 85.113 20.0067
713.207520 85.101 21.8348
718.375732 85.164 23.3574
723.581360 85.249 24.5100
728.824707 85.337 25.2520
734.106079 85.418 25.7938
739.425720 85.474 26.2883
744.783936 85.508 26.7359
750.180908 85.540 27.1206
755.617065 85.579 27.4986
761.092529 85.618 27.9092
766.607727 85.646 28.2531
772.162903 85.671 28.5608
777.758301 85.700 28.8566
783.394287 85.725 29.2209
789.071045 85.744 29.7088
794.789001 85.767 30.2052
800.548340 85.796 30.7020
806.349487 85.817 31.1966
812.192627 85.832 31.6060
818.078125 85.853 31.9679
824.006226 85.876 32.3505
829.977295 85.896 32.7504
835.991699 85.916 33.2013
842.049622 85.942 33.6439
848.151428 85.970 34.0665
854.297485 85.999 34.4644
860.488098 86.028 34.8860
866.723572 86.060 35.3602
873.004211 86.093 35.8314
879.330322 86.124 36.2468
885.702332 86.150 36.6096
892.120483 86.185 36.9829
898.585144 86.225 37.3681
905.096680 86.264 37.7726
911.655396 86.303 38.1959
918.261597 86.342 38.6208
924.915710 86.383 39.0231
931.618042 86.427 39.3972
938.368896 86.465 39.7949
945.168762 86.496 40.2205
952.017822 86.526 40.6377
958.916504 86.564 41.0534
965.865234 86.615 41.4379
972.864319 86.667 41.7646
979.914062 86.709 42.1131
987.014954 86.752 42.5340
994.167236 86.795 42.9411
1001.371399 86.840 43.2836
1008.627747 86.885 43.6261
1015.936646 86.925 43.9202
1023.298584 86.967 44.2202
1030.713867 87.016 44.5956
1038.182739 87.070 44.9641
1045.705933 87.121 45.2766
1053.283447 87.169 45.5777
1060.916016 87.215 45.9105
1068.603882 87.263 46.2344
1076.347412 87.317 46.5422
1084.147095 87.371 46.8329
1092.003296 87.421 47.0772
1099.916382 87.476 47.3370
1107.886841 87.534 47.6081
1115.915039 87.595 47.9082
1124.001343 87.657 48.1915
1132.146362 87.717 48.4110
1140.350342 87.781 48.6489
1148.613770 87.848 48.8787
1156.937134 87.910 49.0956
1165.320801 87.966 49.3102
1173.765137 88.017 49.5407
1182.270752 88.071 49.7877
1190.838013 88.133 50.0123
1199.467285 88.197 50.1870
1208.159180 88.255 50.3544
1216.913940 88.311 50.5393
1225.732178 88.371 50.7184
1234.614380 88.433 50.8975
1243.560913 88.491 51.1013
1252.572266 88.549 51.3404
1261.648926 88.608 51.5721
1270.791382 88.667 51.7395
1280.000000 88.723 51.8645
1289.275391 88.780 51.9981
1298.618042 88.838 52.1776
1308.028320 88.894 52.3787
1317.506836 88.949 52.5626
1327.054077 89.000 52.7443
1336.670410 89.050 52.9338
1346.356567 89.099 53.1154
1356.112793 89.140 53.3032
1365.939697 89.179 53.4976
1375.837891 89.223 53.6570
1385.807739 89.267 53.8048
1395.849854 89.313 54.0190
1405.964844 89.358 54.2418
1416.152954 89.408 54.4172
1426.415039 89.458 54.5953
1436.751465 89.505 54.7723
1447.162720 89.554 54.9528
1457.649414 89.604 55.1427
1468.212158 89.657 55.3583
1478.851440 89.711 55.5826
1489.567871 89.762 55.8102
1500.361816 89.813 56.0369
1511.234131 89.856 56.2567
1522.185059 89.900 56.4612
1533.215454 89.948 56.6383
1544.325806 89.993 56.8181
1555.516602 90.035 57.0261
1566.788574 90.080 57.2446
1578.142090 90.129 57.4525
1589.578003 90.179 57.6736
1601.096680 90.225 57.9007
1612.698975 90.270 58.1203
1624.385254 90.316 58.3407
1636.156250 90.365 58.5519
1648.012451 90.415 58.7756
1659.954590 90.468 59.0098
1671.983398 90.518 59.2250
1684.099243 90.563 59.4426
1696.302856 90.605 59.7064
1708.594971 90.650 59.9865
1720.976196 90.697 60.2548
1733.447144 90.746 60.5225
1746.008423 90.795 60.7785
1758.660645 90.841 61.0475
1771.404663 90.891 61.3347
1784.240967 90.950 61.6315
1797.170288 91.012 61.9525
1810.193359 91.072 62.2754
1823.310791 91.134 62.6120
1836.523193 91.204 62.9517
1849.831421 91.283 63.2502
1863.236084 91.366 63.4983
1876.737793 91.451 63.7127
1890.337524 91.535 63.8882
1904.035645 91.618 64.0153
1917.833008 91.695 64.1020
1931.730469 91.771 64.1558
1945.728638 91.844 64.2278
1959.828125 91.910 64.3107
1974.029907 91.976 64.3823
1988.334473 92.040 64.4525
2002.742798 92.099 64.5350
2017.255493 92.156 64.6120
2031.873291 92.216 64.7005
2046.597168 92.277 64.7990
2061.427734 92.335 64.8907
2076.365479 92.393 64.9938
2091.411865 92.445 65.0905
2106.566895 92.496 65.1717
2121.832031 92.555 65.2572
2137.207764 92.617 65.3563
2152.694824 92.676 65.4429
2168.294189 92.733 65.5235
2184.006592 92.789 65.6574
2199.832764 92.848 65.8122
2215.773682 92.911 65.9454
2231.830078 92.968 66.0906
2248.002686 93.025 66.2608
2264.292725 93.089 66.4284
2280.700684 93.162 66.5936
2297.227539 93.237 66.7322
2313.874268 93.315 66.8169
2330.641602 93.396 66.8428
2347.530273 93.477 66.8267
2364.541504 93.555 66.7874
2381.676025 93.628 66.7299
2398.934570 93.700 66.6349
2416.318359 93.767 66.5243
2433.827881 93.826 66.4279
2451.464355 93.879 66.3465
2469.228760 93.931 66.2739
2487.121826 93.984 66.1992
2505.144531 94.037 66.1276
2523.297852 94.089 66.0559
2541.582764 94.139 65.9835
2560.000000 94.187 65.9067
2578.550781 94.237 65.8170
2597.236084 94.287 65.7215
2616.056641 94.337 65.6190
2635.013672 94.380 65.5003
2654.108154 94.420 65.3969
2673.340820 94.459 65.3234
2692.713135 94.493 65.2665
2712.225586 94.524 65.2221
2731.879395 94.555 65.1821
2751.675781 94.588 65.1683
2771.615479 94.627 65.2075
2791.699707 94.669 65.2643
2811.929688 94.714 65.3165
2832.305908 94.767 65.3558
2852.830078 94.827 65.3535
2873.502930 94.892 65.2974
2894.325439 94.959 65.1863
2915.298828 95.025 65.0282
2936.424316 95.085 64.8128
2957.702881 95.137 64.5535
2979.135742 95.181 64.2689
3000.723633 95.218 63.9773
3022.468262 95.247 63.6819
3044.370117 95.270 63.4029
3066.430908 95.287 63.1578
3088.651611 95.298 62.9338
3111.033203 95.306 62.7375
3133.577148 95.314 62.5795
3156.284180 95.322 62.4587
3179.156006 95.332 62.3753
3202.193359 95.343 62.3218
3225.397949 95.358 62.2935
3248.770508 95.382 62.2812
3272.312500 95.411 62.2640
3296.024902 95.447 62.2251
3319.909180 95.489 62.1621
3343.966797 95.538 62.0647
3368.198486 95.590 61.9044
3392.605713 95.640 61.6699
3417.189941 95.687 61.3775
3441.952393 95.734 61.0338
3466.894287 95.777 60.6436
3492.016846 95.814 60.2204
3517.321289 95.842 59.7707
3542.809326 95.862 59.3040
3568.481934 95.875 58.8383
3594.340576 95.882 58.3656
3620.386719 95.885 57.8972
3646.621582 95.884 57.4513
3673.046387 95.878 57.0281
3699.662842 95.872 56.6117
3726.472168 95.863 56.1753
3753.475586 95.847 55.7287
3780.675049 95.826 55.2882
3808.071289 95.803 54.8431
3835.666016 95.775 54.3990
3863.460938 95.744 53.9553
3891.457275 95.706 53.5166
3919.656250 95.662 53.0858
3948.059814 95.613 52.6499
3976.668945 95.560 52.2181
4005.485596 95.503 51.7936
4034.510986 95.439 51.3834
4063.746582 95.369 50.9842
4093.194336 95.294 50.5943
4122.855469 95.218 50.2083
4152.730957 95.136 49.8464
4182.823730 95.048 49.5165
4213.133789 94.956 49.1990
4243.664062 94.861 48.8947
4274.415527 94.763 48.6147
4305.389648 94.662 48.3517
4336.588379 94.551 48.1157
4368.013184 94.429 47.9092
4399.665527 94.303 47.7157
4431.547363 94.173 47.5419
4463.660156 94.036 47.4056
4496.005371 93.898 47.3169
4528.585449 93.757 47.2740
4561.401367 93.610 47.2652
4594.455078 93.463 47.2922
4627.748535 93.317 47.3675
4661.283203 93.169 47.4859
4695.060547 93.021 47.6535
4729.083008 92.876 47.8619
4763.352051 92.732 48.0833
4797.869141 92.589 48.3183
4832.636719 92.447 48.5648
4867.655762 92.304 48.8291
4902.928711 92.155 49.1069
4938.457520 92.000 49.4064
4974.243652 91.845 49.7281
5010.289062 91.690 50.0743
5046.595703 91.528 50.4756
5083.165527 91.364 50.9456
5120.000000 91.199 51.4598
5157.101562 91.036 51.9978
5194.472168 90.874 52.5872
5232.113281 90.709 53.2419
5270.027344 90.543 53.9551
5308.216309 90.378 54.6961
5346.681641 90.216 55.4815
5385.426270 90.058 56.3410
5424.451172 89.906 57.2618
5463.758789 89.755 58.2422
5503.351562 89.607 59.2667
5543.230957 89.465 60.3335
5583.399414 89.331 61.4325
5623.859375 89.205 62.5615
5664.611816 89.085 63.7510
5705.660156 88.973 64.9758
5747.005859 88.868 66.2304
5788.650879 88.769 67.5238
5830.597656 88.673 68.8397
5872.848633 88.581 70.1957
5915.405762 88.495 71.5515
5958.271484 88.415 72.9227
6001.447266 88.340 74.3295
6044.936523 88.267 75.7568
6088.740234 88.198 77.2334
6132.861816 88.136 78.7546
6177.303223 88.084 80.3134
6222.066406 88.039 81.9321
6267.154297 88.007 83.6053
6312.568359 87.987 85.3311
6358.312012 87.977 87.1034
6404.386719 87.979 88.8845
6450.795898 87.996 90.6401
6497.541016 88.030 92.4024
6544.625000 88.079 94.1755
6592.049805 88.138 95.9796
6639.818359 88.211 97.8008
6687.933594 88.300 99.6198
6736.396973 88.398 101.4404
6785.211426 88.511 103.2352
6834.379883 88.647 105.0106
6883.904785 88.811 106.7796
6933.788574 89.001 108.5334
6984.033691 89.217 110.2651
7034.642578 89.455 111.9619
7085.618652 89.714 113.5960
7136.963867 90.000 115.1752
7188.681152 90.312 116.6697
7240.773438 90.651 118.0420
7293.243164 91.018 119.2827
7346.092773 91.415 120.3673
7399.325684 91.847 121.2444
7452.944336 92.311 121.8449
7506.951172 92.805 122.1185
7561.350098 93.329 122.0190
7616.142578 93.885 121.4562
7671.332031 94.478 120.3099
7726.921875 95.079 118.4970
7782.914551 95.619 115.9147
7839.312500 96.077 112.4922
7896.119629 96.434 108.2601
7953.337891 96.657 103.3559
8010.971191 96.713 98.0195
8069.021973 96.584 92.5983
8127.493164 96.274 87.4777
8186.388672 95.808 82.9766
8245.710938 95.225 79.2905
8305.461914 94.564 76.4894
8365.647461 93.861 74.5466
8426.267578 93.143 73.3850
8487.328125 92.434 72.9093
8548.831055 91.747 73.0144
8610.779297 91.087 73.5849
8673.176758 90.452 74.5391
8736.026367 89.847 75.8155
8799.331055 89.270 77.3472
8863.094727 88.712 79.0711
8927.320312 88.158 81.0333
8992.010742 87.618 83.3928
9057.170898 87.127 86.2384
9122.802734 86.716 89.3266
9188.910156 86.379 92.3306
9255.497070 86.086 95.1669
9322.566406 85.805 97.9205
9390.121094 85.534 100.6979
9458.166016 85.285 103.5090
9526.704102 85.066 106.3525
9595.738281 84.870 109.2485
9665.273438 84.694 112.1402
9735.311523 84.543 114.9824
9805.857422 84.423 117.7785
9876.915039 84.327 120.5140
9948.487305 84.251 123.2196
10020.578125 84.200 125.8965
10093.191406 84.163 128.4845
10166.331055 84.144 130.9760
10240.000000 84.152 133.3865
10314.203125 84.179 135.6587
10388.944336 84.220 137.7880
10464.226562 84.270 139.7932
10540.054688 84.330 141.6742
10616.432617 84.403 143.4073
10693.363281 84.484 144.9628
10770.852539 84.562 146.3716
10848.902344 84.638 147.6710
10927.517578 84.710 148.8903
11006.703125 84.774 150.0354
11086.461914 84.829 151.0714
11166.798828 84.878 152.0662
11247.718750 84.928 153.1012
11329.223633 84.981 154.2162
11411.320312 85.053 155.3849
11494.011719 85.153 156.5154
11577.301758 85.274 157.5212
11661.195312 85.401 158.3697
11745.697266 85.535 159.1112
11830.811523 85.686 159.8298
11916.542969 85.856 160.4821
12002.894531 86.043 161.0037
12089.873047 86.248 161.3336
12177.480469 86.465 161.4163
12265.723633 86.686 161.2022
12354.606445 86.903 160.6422
12444.132812 87.100 159.7055
12534.308594 87.253 158.3876
12625.136719 87.349 156.7436
12716.624023 87.373 154.8795
12808.773438 87.308 152.9333
12901.591797 87.143 151.0831
12995.082031 86.892 149.5248
13089.250000 86.566 148.4282
13184.099609 86.180 147.9064
13279.636719 85.763 147.9762
13375.867188 85.336 148.6178
13472.793945 84.926 149.8338
13570.422852 84.548 151.5797
13668.759766 84.215 153.7560
13767.809570 83.939 156.2269
13867.577148 83.726 158.8324
13968.067383 83.588 161.4625
14069.285156 83.522 164.0194
14171.237305 83.507 166.3114
14273.927734 83.521 168.2427
14377.362305 83.549 169.6443
14481.546875 83.565 170.3673
14586.486328 83.511 170.3726
14692.185547 83.327 169.8101
14798.651367 82.952 169.0411
14905.888672 82.332 169.0047
15013.902344 81.544 171.0868
15122.700195 80.890 175.2072
15232.285156 80.513 179.0346
15342.664062 80.113 -177.6356
15453.843750 79.741 -173.3338
15565.829102 79.590 -168.8849
15678.625000 79.572 -165.1384
15792.239258 79.604 -162.0600
15906.675781 79.666 -159.5541
16021.942383 79.750 -157.7718
16138.043945 79.848 -156.9063
16254.986328 79.922 -156.9596
16372.777344 79.928 -157.8134
16491.421875 79.840 -159.3416
16610.923828 79.666 -161.3529
16731.294922 79.397 -163.7473
16852.535156 79.047 -166.1427
16974.656250 78.681 -168.4948
17097.662109 78.346 -171.1026
17221.558594 78.057 -173.9444
17346.353516 77.852 -177.8347
17472.052734 77.754 169.5016
17598.662109 77.753 115.0725
17726.189453 77.877 -18.9314
17854.640625 78.302 -150.9646
17984.021484 78.729 125.8806
18114.341797 78.481 -6.8181
18245.605469 77.571 147.1682
18377.820312 76.743 -129.7888
18510.994141 76.240 -100.6968
18645.132812 75.536 -85.8813
18780.242188 74.800 174.1108
18916.332031 74.448 108.3750
19053.408203 74.198 -122.8560
19191.476562 73.915 135.3867
19330.546875 73.729 10.9739
19470.623047 73.664 -116.4519
19611.714844 73.682 -171.5007
19753.830078 73.744 135.6519
19896.974609 73.855 -1.9456
