* Measurement data measured by REW V5.20.13
* Source: Headset (DS by VECLAN.COM), MICROPHONE (Master Volume), L, volume: 0.720. Timing signal peak level -16.0 dBFS, measurement signal peak level -15.3 dBFS
* Format: 2M Log Swept Sine, 1 sweep at -12.0 dBFS using an acoustic timing reference
* Dated: Nov 24, 2023 12:37:51 PM
* REW Settings:
*  C-weighting compensation: Off
*  Target level: 75.0 dB
* Note: ; Delay -0.0564 ms (-19 mm, -0.76 in) using estimated IR delay relative to Acoustic reference played from HEADPHONE R with no timing offset
* Measurement: KZ PR3 Nov 17 R
* Smoothing: 1/24 octave
* Frequency Step: 1/48 octave
* Start Frequency: 1.000 Hz
*
* Freq(Hz) SPL(dB) Phase(degrees)
1.000000 83.132 -46.1236
1.015000 83.354 -47.4321
1.030000 83.575 -48.6946
1.044000 83.779 -49.8266
1.060000 84.009 -51.0600
1.075000 84.223 -52.1523
1.090000 84.433 -53.1773
1.106000 84.655 -54.1919
1.120000 84.850 -55.0201
1.138000 85.103 -56.0105
1.150000 85.273 -56.6273
1.172000 85.585 -57.6753
1.180000 85.700 -58.0317
1.206000 86.070 -59.1087
1.220000 86.270 -59.6422
1.241000 86.567 -60.3903
1.250000 86.694 -60.6939
1.265000 86.904 -61.1806
1.280000 87.112 -61.6463
1.315000 87.588 -62.6732
1.320000 87.654 -62.8152
1.340000 87.917 -63.3772
1.360000 88.172 -63.9363
1.380000 88.420 -64.5020
1.400000 88.659 -65.0833
1.430000 88.998 -66.0047
1.450000 89.211 -66.6654
1.475000 89.460 -67.5535
1.500000 89.692 -68.4665
1.525000 89.908 -69.3891
1.550000 90.110 -70.3179
1.575000 90.299 -71.2495
1.600000 90.476 -72.1804
1.625000 90.642 -73.1072
1.650000 90.800 -74.0265
1.675000 90.949 -74.9348
1.700000 91.093 -75.8287
1.725000 91.231 -76.7047
1.750000 91.365 -77.5595
1.775000 91.497 -78.3895
1.800000 91.628 -79.1914
1.825000 91.759 -79.9616
1.850000 91.888 -80.6974
1.875000 92.010 -81.3999
1.900000 92.124 -82.0726
1.925000 92.232 -82.7189
1.950000 92.334 -83.3423
1.975000 92.431 -83.9462
2.000000 92.525 -84.5340
2.030000 92.633 -85.2229
2.060000 92.738 -85.8996
2.090000 92.842 -86.5699
2.120000 92.946 -87.2398
2.140000 93.016 -87.6891
2.180000 93.160 -88.6021
2.200000 93.234 -89.0692
2.240000 93.385 -90.0080
2.270000 93.499 -90.7097
2.300000 93.613 -91.4087
2.330000 93.726 -92.1047
2.360000 93.838 -92.7972
2.400000 93.986 -93.7143
2.430000 94.095 -94.3968
2.470000 94.237 -95.2991
2.500000 94.340 -95.9695
2.540000 94.473 -96.8538
2.580000 94.600 -97.7271
2.620000 94.721 -98.5937
2.650000 94.809 -99.2393
2.690000 94.921 -100.0929
2.720000 95.003 -100.7272
2.760000 95.110 -101.5637
2.800000 95.213 -102.3886
2.850000 95.338 -103.4010
2.900000 95.461 -104.3902
2.950000 95.581 -105.3530
3.000000 95.697 -106.2844
3.040000 95.787 -107.0097
3.070000 95.853 -107.5442
3.110000 95.938 -108.2465
3.150000 96.022 -108.9400
3.200000 96.123 -109.7989
3.250000 96.221 -110.6546
3.300000 96.316 -111.5131
3.350000 96.407 -112.3771
3.400000 96.495 -113.2422
3.450000 96.579 -114.1028
3.500000 96.661 -114.9537
3.550000 96.739 -115.7894
3.600000 96.815 -116.6048
3.650000 96.888 -117.3942
3.700000 96.959 -118.1536
3.750000 97.027 -118.8852
3.820000 97.117 -119.8722
3.870000 97.178 -120.5574
3.950000 97.272 -121.6332
4.000000 97.329 -122.3003
4.060000 97.396 -123.1024
4.120000 97.461 -123.9007
4.180000 97.523 -124.6905
4.250000 97.593 -125.5959
4.310000 97.650 -126.3537
4.370000 97.706 -127.0905
4.440000 97.769 -127.9185
4.500000 97.820 -128.6016
4.550000 97.862 -129.1556
4.620000 97.917 -129.9131
4.680000 97.964 -130.5508
4.750000 98.017 -131.2876
4.820000 98.070 -132.0186
4.870000 98.107 -132.5335
4.940000 98.157 -133.2439
5.000000 98.199 -133.8427
5.080000 98.254 -134.6262
5.150000 98.300 -135.2971
5.220000 98.345 -135.9522
5.300000 98.395 -136.6836
5.380000 98.444 -137.4007
5.450000 98.485 -138.0195
5.520000 98.526 -138.6328
5.600000 98.571 -139.3232
5.700000 98.626 -140.1710
5.800000 98.679 -141.0047
5.900000 98.730 -141.8272
6.000000 98.779 -142.6376
6.080000 98.816 -143.2765
6.150000 98.848 -143.8286
6.220000 98.878 -144.3740
6.300000 98.912 -144.9887
6.400000 98.952 -145.7448
6.500000 98.990 -146.4877
6.600000 99.026 -147.2182
6.700000 99.061 -147.9366
6.800000 99.093 -148.6426
6.900000 99.124 -149.3354
7.000000 99.155 -150.0142
7.100000 99.184 -150.6776
7.200000 99.211 -151.3283
7.300000 99.238 -151.9701
7.400000 99.265 -152.6046
7.500000 99.290 -153.2294
7.620000 99.319 -153.9693
7.750000 99.349 -154.7623
7.880000 99.378 -155.5444
8.000000 99.402 -156.2588
8.120000 99.424 -156.9686
8.250000 99.446 -157.7326
8.380000 99.465 -158.4865
8.500000 99.479 -159.1710
8.620000 99.489 -159.8476
8.750000 99.497 -160.5617
8.850000 99.501 -161.0925
9.000000 99.501 -161.8652
9.120000 99.500 -162.4543
9.250000 99.498 -163.0562
9.380000 99.494 -163.6238
9.500000 99.490 -164.1187
9.620000 99.485 -164.5833
9.750000 99.478 -165.0535
9.880000 99.469 -165.5028
10.000000 99.456 -165.9003
10.150000 99.437 -166.3743
10.300000 99.418 -166.8454
10.440000 99.397 -167.2770
10.600000 99.376 -167.7830
10.750000 99.360 -168.2871
10.900000 99.348 -168.8157
11.060000 99.334 -169.4246
11.200000 99.323 -169.9974
11.380000 99.303 -170.7622
11.500000 99.286 -171.2902
11.720000 99.247 -172.2707
11.800000 99.230 -172.6225
12.060000 99.166 -173.7503
12.200000 99.127 -174.3288
12.410000 99.066 -175.1580
12.500000 99.038 -175.4927
12.650000 98.991 -176.0233
12.800000 98.943 -176.5255
13.150000 98.833 -177.5968
13.200000 98.817 -177.7424
13.400000 98.759 -178.3061
13.600000 98.704 -178.8491
13.800000 98.650 -179.3753
14.000000 98.597 -179.8834
14.300000 98.517 179.3923
14.500000 98.464 178.9467
14.750000 98.401 178.4332
15.000000 98.344 177.9646
15.250000 98.300 177.5186
15.500000 98.264 177.0727
15.750000 98.237 176.6126
16.000000 98.213 176.1186
16.250000 98.188 175.5876
16.500000 98.162 175.0260
16.750000 98.130 174.4492
17.000000 98.094 173.8844
17.250000 98.053 173.3453
17.500000 98.010 172.8477
17.750000 97.967 172.3962
18.000000 97.927 171.9843
18.250000 97.890 171.6040
18.500000 97.858 171.2359
18.750000 97.831 170.8675
19.000000 97.809 170.4872
19.250000 97.788 170.0844
19.500000 97.767 169.6620
19.750000 97.744 169.2227
20.000000 97.718 168.7777
20.299999 97.681 168.2491
20.600000 97.640 167.7372
20.900000 97.595 167.2489
21.200001 97.549 166.7834
21.400000 97.517 166.4832
21.799999 97.451 165.9066
22.000000 97.416 165.6326
22.400000 97.345 165.1255
22.700001 97.293 164.7926
23.000000 97.244 164.5016
23.299999 97.202 164.2343
23.600000 97.169 163.9643
24.000000 97.134 163.5577
24.299999 97.111 163.1982
24.700001 97.076 162.6536
25.000000 97.043 162.2217
25.400000 96.989 161.6529
25.799999 96.926 161.1192
26.200001 96.858 160.6276
26.500000 96.804 160.2895
26.900000 96.731 159.8905
27.200001 96.677 159.6366
27.600000 96.612 159.3479
28.000000 96.560 159.0651
28.500000 96.508 158.6155
29.000000 96.451 158.0202
29.500000 96.372 157.3861
30.000000 96.278 156.8681
30.400000 96.209 156.5596
30.700001 96.165 156.3583
31.100000 96.118 156.0759
31.500000 96.078 155.7554
32.000000 96.027 155.3347
32.500000 95.974 154.9567
33.000000 95.926 154.6367
33.500000 95.883 154.3429
34.000000 95.842 154.0574
34.500000 95.798 153.7834
35.000000 95.748 153.5142
35.500000 95.685 153.2474
36.000000 95.606 153.0226
36.500000 95.517 152.8930
37.000000 95.435 152.8390
37.500000 95.369 152.7472
38.200001 95.289 152.3499
38.700001 95.219 151.8908
39.500000 95.082 151.1800
40.000000 95.005 150.8578
40.599998 94.946 150.5350
41.200001 94.918 150.1755
41.799999 94.902 149.8037
42.500000 94.890 149.4942
43.099998 94.889 149.3426
43.700001 94.883 149.2178
44.400002 94.843 149.1429
45.000000 94.778 149.2052
45.500000 94.708 149.2880
46.200001 94.581 149.3192
46.799999 94.440 149.2291
47.500000 94.246 148.8800
48.200001 94.004 148.1511
48.700001 93.787 147.5834
49.400002 93.469 147.1469
50.000000 93.271 147.0461
50.799999 93.148 146.7815
51.500000 93.137 146.4949
52.200001 93.240 146.2290
53.000000 93.427 145.4120
53.799999 93.503 144.5575
54.500000 93.528 144.7014
55.200001 93.613 145.1032
56.000000 93.639 145.0302
57.000000 93.454 145.7465
58.000000 93.390 146.9228
59.000000 93.288 146.3481
60.000000 92.992 145.8383
60.799999 92.817 146.0437
61.500000 92.799 146.1054
62.200001 92.846 145.4265
63.000000 92.798 144.1630
64.000000 92.635 143.9231
65.000000 92.597 144.4273
66.000000 92.571 145.2773
67.000000 92.703 145.8550
68.000000 92.673 144.5756
69.000000 92.385 144.0853
70.000000 92.165 143.9933
71.000000 91.889 143.8116
72.000000 91.635 144.9863
73.000000 91.681 146.8108
74.000000 91.884 147.2835
75.000000 91.952 147.5132
76.199997 92.153 148.1413
77.500000 92.188 146.7115
78.800003 91.896 145.7129
80.000000 91.555 145.1160
81.199997 91.238 144.7487
82.500000 91.090 144.2972
83.800003 91.086 142.8134
85.000000 91.051 142.1813
86.199997 91.115 142.2290
87.500000 91.095 143.2041
88.500000 91.120 144.5250
90.000000 91.069 145.9908
91.199997 91.009 146.5145
92.500000 90.796 146.0340
93.800003 90.604 146.0565
95.000000 90.579 145.3564
96.199997 90.499 144.5286
97.500000 90.438 144.7009
98.800003 90.439 144.9065
100.000000 90.343 145.1114
101.500000 90.214 145.8768
103.000000 90.150 146.0204
104.400002 90.054 145.6836
106.000000 89.929 145.7621
107.500000 89.893 146.1710
109.000000 89.883 146.2964
110.599998 89.817 146.1301
112.000000 89.708 146.0568
113.800003 89.565 146.3330
115.000000 89.504 146.7668
117.199997 89.521 147.3830
118.000000 89.530 147.3040
120.599998 89.378 146.9696
122.000000 89.265 147.2736
124.099998 89.154 147.6342
125.000000 89.105 147.6580
126.500000 89.018 147.7858
128.000000 88.968 148.1315
131.500000 88.958 148.6111
132.000000 88.943 148.6060
134.000000 88.820 148.4881
136.000000 88.634 148.4729
138.000000 88.487 148.7999
140.000000 88.422 149.3184
143.000000 88.342 149.6643
145.000000 88.227 149.7523
147.500000 88.143 150.2102
150.000000 88.164 150.7878
152.500000 88.173 151.2183
155.000000 88.119 151.4704
157.500000 88.056 151.7605
160.000000 88.007 152.1910
162.500000 87.941 152.6116
165.000000 87.859 152.8988
167.500000 87.785 153.1187
170.000000 87.721 153.3444
172.500000 87.649 153.6468
175.000000 87.579 153.9671
177.500000 87.521 154.2686
180.000000 87.469 154.5516
182.500000 87.412 154.8726
185.000000 87.360 155.2682
187.500000 87.318 155.6374
190.000000 87.265 155.8802
192.500000 87.196 156.1064
195.000000 87.138 156.3668
197.500000 87.099 156.6097
200.000000 87.058 156.8694
203.000000 86.995 157.2624
206.000000 86.936 157.7057
209.000000 86.890 158.1088
212.000000 86.848 158.5533
214.000000 86.825 158.8939
218.000000 86.776 159.5059
220.000000 86.736 159.7717
224.000000 86.660 160.1694
227.000000 86.598 160.3832
230.000000 86.543 160.8097
233.000000 86.512 161.2543
236.000000 86.471 161.5764
240.000000 86.393 162.0500
243.000000 86.348 162.4693
247.000000 86.322 163.0460
250.000000 86.301 163.4230
254.000000 86.254 163.9396
258.000000 86.222 164.3975
262.000000 86.175 164.5987
265.000000 86.133 164.8312
269.000000 86.100 165.3653
272.000000 86.074 165.7936
276.000000 86.026 166.2177
280.000000 85.970 166.6036
285.000000 85.926 167.1418
290.000000 85.901 167.8777
295.000000 85.848 168.4975
300.000000 85.813 168.9089
304.000000 85.786 169.3135
307.000000 85.763 169.6583
311.000000 85.733 170.1608
315.000000 85.706 170.6247
320.000000 85.674 171.0750
325.000000 85.652 171.5678
330.000000 85.627 172.1098
335.000000 85.600 172.6570
340.000000 85.578 173.2360
345.000000 85.556 173.7745
350.000000 85.529 174.2564
355.000000 85.500 174.7184
360.000000 85.472 175.2244
365.000000 85.442 175.7427
370.000000 85.412 176.2866
375.000000 85.388 176.8115
382.000000 85.362 177.5731
387.000000 85.364 178.1752
395.000000 85.321 178.7734
400.000000 85.276 179.2386
406.000000 85.246 179.8888
412.000000 85.256 -179.5139
418.000000 85.283 -178.9990
425.000000 85.276 -178.3342
431.000000 85.242 -177.8348
437.000000 85.196 -177.4672
444.000000 85.154 -176.6499
450.000000 85.134 -175.8587
455.000000 85.121 -175.3376
462.000000 85.109 -174.6858
468.000000 85.097 -174.1041
475.000000 85.080 -173.4286
482.000000 85.065 -172.7938
487.000000 85.060 -172.3591
494.000000 85.058 -171.7277
500.000000 85.053 -171.1660
508.000000 85.045 -170.4371
515.000000 85.034 -169.7983
522.000000 85.023 -169.1575
530.000000 85.015 -168.4669
538.000000 85.019 -167.7985
545.000000 85.031 -167.1800
552.000000 85.042 -166.5143
560.000000 85.044 -165.7607
570.000000 85.046 -164.8856
580.000000 85.049 -163.9888
590.000000 85.049 -163.0166
600.000000 85.066 -162.1690
608.000000 85.082 -161.5666
615.000000 85.090 -160.9954
622.000000 85.093 -160.3834
630.000000 85.093 -159.6514
640.000000 85.098 -158.7089
650.000000 85.115 -157.7990
660.000000 85.128 -156.9962
670.000000 85.156 -156.4077
680.000000 85.195 -155.6127
690.000000 85.204 -154.5686
700.000000 85.205 -153.6230
710.000000 85.225 -152.7635
720.000000 85.265 -151.9875
730.000000 85.305 -151.1737
740.000000 85.333 -150.2784
750.000000 85.355 -149.4783
762.000000 85.399 -148.5703
775.000000 85.439 -147.4424
788.000000 85.469 -146.3275
800.000000 85.516 -145.3448
812.000000 85.568 -144.3875
825.000000 85.623 -143.3339
838.000000 85.677 -142.2341
850.000000 85.729 -141.2177
862.000000 85.791 -140.2354
875.000000 85.863 -139.1802
885.000000 85.920 -138.3775
900.000000 86.010 -137.2157
912.000000 86.087 -136.3038
925.000000 86.171 -135.3208
938.000000 86.260 -134.3561
950.000000 86.351 -133.4762
962.000000 86.445 -132.5828
975.000000 86.544 -131.6915
988.000000 86.645 -130.9319
1000.000000 86.738 -130.2437
1015.000000 86.856 -129.3712
1030.000000 86.976 -128.5437
1044.000000 87.089 -127.8039
1060.000000 87.218 -127.0035
1075.000000 87.340 -126.3035
1090.000000 87.466 -125.6175
1106.000000 87.606 -124.9268
1120.000000 87.730 -124.3731
1138.000000 87.887 -123.6817
1150.000000 87.992 -123.2275
1172.000000 88.184 -122.4340
1180.000000 88.253 -122.1600
1206.000000 88.474 -121.2949
1220.000000 88.591 -120.8346
1241.000000 88.769 -120.1558
1250.000000 88.849 -119.8779
1265.000000 88.985 -119.4599
1280.000000 89.120 -119.0791
1315.000000 89.426 -118.2196
1320.000000 89.468 -118.1053
1340.000000 89.633 -117.6971
1360.000000 89.783 -117.3732
1380.000000 89.932 -117.1169
1400.000000 90.091 -116.9693
1430.000000 90.308 -116.9489
1450.000000 90.416 -116.9003
1475.000000 90.504 -116.7720
1500.000000 90.564 -116.4386
1525.000000 90.625 -115.8370
1550.000000 90.698 -114.9910
1575.000000 90.794 -113.9945
1600.000000 90.926 -113.0173
1625.000000 91.094 -112.1413
1650.000000 91.279 -111.3800
1675.000000 91.470 -110.7706
1700.000000 91.657 -110.3158
1725.000000 91.828 -109.9943
1750.000000 91.976 -109.7528
1775.000000 92.100 -109.4946
1800.000000 92.208 -109.1356
1825.000000 92.312 -108.6268
1850.000000 92.427 -107.9840
1875.000000 92.563 -107.2752
1900.000000 92.720 -106.5740
1925.000000 92.897 -105.9339
1950.000000 93.086 -105.3839
1975.000000 93.281 -104.9268
2000.000000 93.480 -104.5661
2030.000000 93.720 -104.2589
2060.000000 93.964 -104.0816
2090.000000 94.208 -104.0227
2120.000000 94.451 -104.0905
2140.000000 94.611 -104.2042
2180.000000 94.920 -104.5773
2200.000000 95.065 -104.8352
2240.000000 95.335 -105.4746
2270.000000 95.522 -106.0658
2300.000000 95.699 -106.7431
2330.000000 95.860 -107.4785
2360.000000 96.001 -108.2393
2400.000000 96.162 -109.2298
2430.000000 96.270 -109.9560
2470.000000 96.411 -110.9743
2500.000000 96.508 -111.7970
2540.000000 96.616 -112.9576
2580.000000 96.693 -114.1551
2620.000000 96.742 -115.3347
2650.000000 96.765 -116.1844
2690.000000 96.780 -117.2334
2720.000000 96.783 -117.9563
2760.000000 96.787 -118.8872
2800.000000 96.792 -119.9041
2850.000000 96.777 -121.4150
2900.000000 96.702 -123.1483
2950.000000 96.543 -124.8954
3000.000000 96.302 -126.4128
3040.000000 96.061 -127.3678
3070.000000 95.853 -127.8978
3110.000000 95.536 -128.2597
3150.000000 95.188 -128.0172
3200.000000 94.777 -126.6451
3250.000000 94.506 -124.4781
3300.000000 94.398 -122.3416
3350.000000 94.387 -120.6931
3400.000000 94.404 -119.5253
3450.000000 94.423 -118.6977
3500.000000 94.436 -118.1217
3550.000000 94.430 -117.7351
3600.000000 94.390 -117.4340
3650.000000 94.310 -117.0335
3700.000000 94.211 -116.3546
3750.000000 94.137 -115.4076
3820.000000 94.112 -114.0521
3870.000000 94.126 -113.3722
3950.000000 94.122 -112.9421
4000.000000 94.070 -112.9393
4060.000000 93.934 -112.9551
4120.000000 93.717 -112.6801
4180.000000 93.451 -111.7786
4250.000000 93.173 -109.8526
4310.000000 93.023 -107.8551
4370.000000 92.935 -105.9751
4440.000000 92.849 -103.9966
4500.000000 92.781 -102.2392
4550.000000 92.751 -100.6835
4620.000000 92.767 -98.6315
4680.000000 92.808 -97.1428
4750.000000 92.862 -95.6294
4820.000000 92.931 -94.3435
4870.000000 92.989 -93.6337
4940.000000 93.062 -92.9738
5000.000000 93.097 -92.6815
5080.000000 93.081 -92.5232
5150.000000 93.005 -92.4536
5220.000000 92.875 -92.3667
5300.000000 92.658 -92.1052
5380.000000 92.377 -91.4058
5450.000000 92.112 -90.2608
5520.000000 91.868 -88.6401
5600.000000 91.651 -86.4636
5700.000000 91.467 -83.7939
5800.000000 91.321 -81.4560
5900.000000 91.169 -79.3707
6000.000000 90.974 -77.4433
6080.000000 90.753 -75.8317
6150.000000 90.504 -74.0937
6220.000000 90.229 -71.8226
6300.000000 89.940 -68.5142
6400.000000 89.703 -63.6177
6500.000000 89.649 -58.5214
6600.000000 89.729 -53.8075
6700.000000 89.850 -49.6321
6800.000000 89.954 -45.7228
6900.000000 90.051 -41.6003
7000.000000 90.212 -36.8762
7100.000000 90.515 -31.5898
7200.000000 90.998 -26.1269
7300.000000 91.672 -20.9446
7400.000000 92.542 -16.4668
7500.000000 93.598 -13.1982
7620.000000 95.031 -11.7076
7750.000000 96.525 -13.8673
7880.000000 97.571 -19.7621
8000.000000 97.975 -27.0183
8120.000000 97.850 -33.9233
8250.000000 97.282 -39.2589
8380.000000 96.495 -41.8193
8500.000000 95.734 -41.9059
8620.000000 95.050 -40.2250
8750.000000 94.471 -37.1366
8850.000000 94.152 -34.3564
9000.000000 93.856 -30.0462
9120.000000 93.755 -26.6933
9250.000000 93.766 -23.3439
9380.000000 93.877 -20.4905
9500.000000 94.034 -18.4745
9620.000000 94.206 -17.1410
9750.000000 94.372 -16.4327
9880.000000 94.488 -16.3409
10000.000000 94.536 -16.6366
10150.000000 94.513 -17.3504
10300.000000 94.390 -18.3705
10440.000000 94.169 -19.5657
10600.000000 93.759 -21.0197
10750.000000 93.203 -22.0342
10900.000000 92.511 -22.2362
11060.000000 91.693 -21.3310
11200.000000 90.965 -19.7006
11380.000000 90.044 -16.7361
11500.000000 89.443 -14.3375
11720.000000 88.373 -9.2398
11800.000000 87.988 -7.1735
12060.000000 86.727 0.5052
12200.000000 86.039 5.4624
12410.000000 85.025 14.3537
12500.000000 84.622 18.7532
12650.000000 84.035 26.8508
12800.000000 83.603 35.7732
13150.000000 83.418 58.1586
13200.000000 83.493 61.3522
13400.000000 84.037 73.7036
13600.000000 84.953 84.9696
13800.000000 86.204 94.5862
14000.000000 87.712 101.9896
14300.000000 90.234 107.6707
14500.000000 91.844 106.7502
14750.000000 93.262 99.7833
15000.000000 93.572 89.7353
15250.000000 92.855 82.8684
15500.000000 91.728 82.1171
15750.000000 90.795 86.2412
16000.000000 90.322 92.9312
16250.000000 90.359 100.2187
16500.000000 90.850 106.4573
16750.000000 91.640 110.1672
17000.000000 92.470 110.1297
17250.000000 92.996 106.1435
17500.000000 92.940 99.8345
17750.000000 92.226 94.1157
18000.000000 91.006 91.2836
18250.000000 89.576 91.9484
18500.000000 88.260 95.5694
18750.000000 87.343 101.2794
19000.000000 86.894 108.2990
19250.000000 86.696 116.0093
19500.000000 86.500 123.8827
19750.000000 86.268 131.5349
20000.000000 86.027 138.6184
20300.000000 85.796 146.0259
20600.000000 85.640 152.4894
20900.000000 85.435 158.7381
21200.000000 85.189 165.7322
21400.000000 85.041 170.8363
21800.000000 84.369 175.7712
22000.000000 83.270 156.3434
22400.000000 78.524 116.2867
22700.000000 73.033 -94.5352
23000.000000 66.307 25.6221
23300.000000 58.706 -98.7617
23600.000000 52.209 89.4453
24000.000000 50.719 121.9219
