* Measurement data measured by REW V5.20.13
* Source: Headset (DS by VECLAN.COM), MICROPHONE (Master Volume), L, volume: 0.720. Timing signal peak level -15.8 dBFS, measurement signal peak level -15.3 dBFS
* Format: 2M Log Swept Sine, 1 sweep at -12.0 dBFS using an acoustic timing reference
* Dated: Feb 15, 2024 3:42:32 PM
* REW Settings:
*  C-weighting compensation: Off
*  Target level: 75.0 dB
* Note: ; Delay -0.0727 ms (-25 mm, -0.98 in) using estimated IR delay relative to Acoustic reference played from HEADPHONE L with no timing offset
* Measurement: Letshuoer D13 Blue L
* Smoothing: 1/24 octave
* Frequency Step: 1/48 octave
* Start Frequency: 1.000 Hz
*
* Freq(Hz) SPL(dB) Phase(degrees)
1.000000 81.844 -26.9352
1.015000 82.117 -29.1272
1.030000 82.384 -31.2121
1.044000 82.628 -33.0525
1.060000 82.900 -35.0209
1.075000 83.146 -36.7252
1.090000 83.384 -38.2830
1.106000 83.628 -39.7705
1.120000 83.839 -40.9122
1.138000 84.109 -42.1730
1.150000 84.287 -42.8935
1.172000 84.611 -43.9882
1.180000 84.727 -44.3197
1.206000 85.102 -45.1811
1.220000 85.301 -45.5242
1.241000 85.595 -45.9070
1.250000 85.719 -46.0297
1.265000 85.923 -46.1887
1.280000 86.125 -46.3012
1.315000 86.581 -46.4507
1.320000 86.644 -46.4657
1.340000 86.894 -46.5276
1.360000 87.137 -46.6139
1.380000 87.372 -46.7533
1.400000 87.599 -46.9742
1.430000 87.923 -47.5210
1.450000 88.128 -48.0707
1.475000 88.370 -49.0008
1.500000 88.595 -50.0897
1.525000 88.804 -51.2895
1.550000 88.998 -52.5809
1.575000 89.178 -53.9449
1.600000 89.347 -55.3625
1.625000 89.505 -56.8145
1.650000 89.653 -58.2818
1.675000 89.793 -59.7454
1.700000 89.927 -61.1860
1.725000 90.056 -62.5848
1.750000 90.181 -63.9224
1.775000 90.304 -65.1799
1.800000 90.426 -66.3382
1.825000 90.548 -67.3781
1.850000 90.669 -68.2947
1.875000 90.782 -69.1178
1.900000 90.888 -69.8591
1.925000 90.987 -70.5291
1.950000 91.081 -71.1385
1.975000 91.170 -71.6976
2.000000 91.255 -72.2172
2.030000 91.354 -72.8034
2.060000 91.449 -73.3659
2.090000 91.543 -73.9232
2.120000 91.638 -74.4934
2.140000 91.701 -74.8897
2.180000 91.833 -75.7455
2.200000 91.901 -76.2156
2.240000 92.040 -77.1961
2.270000 92.144 -77.9466
2.300000 92.249 -78.7063
2.330000 92.353 -79.4720
2.360000 92.456 -80.2406
2.400000 92.592 -81.2640
2.430000 92.692 -82.0263
2.470000 92.824 -83.0295
2.500000 92.920 -83.7679
2.540000 93.044 -84.7274
2.580000 93.163 -85.6542
2.620000 93.278 -86.5676
2.650000 93.361 -87.2454
2.690000 93.469 -88.1371
2.720000 93.548 -88.7948
2.760000 93.651 -89.6546
2.800000 93.751 -90.4916
2.850000 93.874 -91.5008
2.900000 93.996 -92.4628
2.950000 94.117 -93.3681
3.000000 94.236 -94.1948
3.040000 94.329 -94.8086
3.070000 94.397 -95.2486
3.110000 94.487 -95.8172
3.150000 94.576 -96.3755
3.200000 94.686 -97.0759
3.250000 94.794 -97.7996
3.300000 94.901 -98.5685
3.350000 95.007 -99.3882
3.400000 95.112 -100.2415
3.450000 95.215 -101.1123
3.500000 95.317 -101.9847
3.550000 95.417 -102.8427
3.600000 95.516 -103.6703
3.650000 95.614 -104.4517
3.700000 95.710 -105.1719
3.750000 95.805 -105.8352
3.820000 95.935 -106.7017
3.870000 96.027 -107.3004
3.950000 96.170 -108.2730
4.000000 96.258 -108.9177
4.060000 96.361 -109.7538
4.120000 96.464 -110.6423
4.180000 96.564 -111.5635
4.250000 96.678 -112.6555
4.310000 96.773 -113.5860
4.370000 96.863 -114.4925
4.440000 96.964 -115.5034
4.500000 97.047 -116.3425
4.550000 97.114 -117.0298
4.620000 97.203 -117.9838
4.680000 97.275 -118.8033
4.750000 97.354 -119.7734
4.820000 97.428 -120.7706
4.870000 97.477 -121.4969
4.940000 97.541 -122.5204
5.000000 97.592 -123.3927
5.080000 97.654 -124.5296
5.150000 97.702 -125.4840
5.220000 97.744 -126.4136
5.300000 97.785 -127.4501
5.380000 97.820 -128.4539
5.450000 97.846 -129.3011
5.520000 97.869 -130.1164
5.600000 97.890 -131.0148
5.700000 97.908 -132.0856
5.800000 97.922 -133.0919
5.900000 97.936 -134.0268
6.000000 97.945 -134.8876
6.080000 97.952 -135.5289
6.150000 97.959 -136.0598
6.220000 97.968 -136.5660
6.300000 97.981 -137.1054
6.400000 98.000 -137.7175
6.500000 98.023 -138.2928
6.600000 98.052 -138.8656
6.700000 98.089 -139.4271
6.800000 98.132 -139.9726
6.900000 98.179 -140.5259
7.000000 98.230 -141.1066
7.100000 98.286 -141.6996
7.200000 98.345 -142.3119
7.300000 98.404 -142.9582
7.400000 98.462 -143.6498
7.500000 98.520 -144.3807
7.620000 98.586 -145.2946
7.750000 98.649 -146.3157
7.880000 98.704 -147.3819
8.000000 98.747 -148.3822
8.120000 98.780 -149.3766
8.250000 98.807 -150.4632
8.380000 98.824 -151.5329
8.500000 98.833 -152.4843
8.620000 98.833 -153.4117
8.750000 98.828 -154.3785
8.850000 98.820 -155.0881
9.000000 98.803 -156.1018
9.120000 98.786 -156.8712
9.250000 98.767 -157.6634
9.380000 98.746 -158.4123
9.500000 98.723 -159.0675
9.620000 98.697 -159.6911
9.750000 98.665 -160.3293
9.880000 98.625 -160.9207
10.000000 98.580 -161.4266
10.150000 98.514 -162.0015
10.300000 98.444 -162.4856
10.440000 98.371 -162.8521
10.600000 98.290 -163.1807
10.750000 98.225 -163.3939
10.900000 98.170 -163.5285
11.060000 98.130 -163.6392
11.200000 98.110 -163.6948
11.380000 98.105 -163.7917
11.500000 98.115 -163.8799
11.720000 98.152 -164.1330
11.800000 98.170 -164.2758
12.060000 98.241 -164.9026
12.200000 98.276 -165.3619
12.410000 98.321 -166.1859
12.500000 98.332 -166.5621
12.650000 98.340 -167.2390
12.800000 98.336 -167.9219
13.150000 98.270 -169.4141
13.200000 98.256 -169.6017
13.400000 98.190 -170.2834
13.600000 98.118 -170.8371
13.800000 98.045 -171.2468
14.000000 97.977 -171.5562
14.300000 97.891 -171.8637
14.500000 97.846 -172.0182
14.750000 97.803 -172.2010
15.000000 97.773 -172.3967
15.250000 97.754 -172.6327
15.500000 97.742 -172.9134
15.750000 97.734 -173.2462
16.000000 97.728 -173.6452
16.250000 97.717 -174.1230
16.500000 97.699 -174.6727
16.750000 97.667 -175.2779
17.000000 97.618 -175.8712
17.250000 97.556 -176.4052
17.500000 97.481 -176.8184
17.750000 97.409 -177.0731
18.000000 97.349 -177.1947
18.250000 97.313 -177.2136
18.500000 97.306 -177.2437
18.750000 97.323 -177.3542
19.000000 97.359 -177.6091
19.250000 97.395 -178.0401
19.500000 97.422 -178.5981
19.750000 97.430 -179.2411
20.000000 97.417 -179.8640
20.299999 97.382 179.4994
20.600000 97.339 179.0329
20.900000 97.306 178.7261
21.200001 97.293 178.4979
21.400000 97.295 178.3278
21.799999 97.312 177.8785
22.000000 97.318 177.5882
22.400000 97.311 176.9263
22.700001 97.284 176.4523
23.000000 97.243 176.0778
23.299999 97.202 175.8176
23.600000 97.166 175.6384
24.000000 97.136 175.4335
24.299999 97.120 175.2372
24.700001 97.096 174.8956
25.000000 97.068 174.6183
25.400000 97.020 174.2994
25.799999 96.971 174.0838
26.200001 96.938 173.9192
26.500000 96.925 173.7608
26.900000 96.918 173.4385
27.200001 96.910 173.1111
27.600000 96.887 172.6130
28.000000 96.852 172.1296
28.500000 96.805 171.6074
29.000000 96.765 171.1306
29.500000 96.725 170.6591
30.000000 96.681 170.2641
30.400000 96.650 170.0568
30.700001 96.637 169.9491
31.100000 96.636 169.7858
31.500000 96.645 169.5204
32.000000 96.641 169.0483
32.500000 96.605 168.6212
33.000000 96.559 168.4451
33.500000 96.546 168.4398
34.000000 96.576 168.2819
34.500000 96.606 167.7577
35.000000 96.589 166.9888
35.500000 96.515 166.3026
36.000000 96.416 165.9082
36.500000 96.328 165.7666
37.000000 96.270 165.7030
37.500000 96.233 165.5864
38.200001 96.196 165.2510
38.700001 96.164 164.9055
39.500000 96.086 164.3857
40.000000 96.036 164.2101
40.599998 96.001 164.0905
41.200001 95.993 163.8422
41.799999 95.974 163.4081
42.500000 95.916 162.9203
43.099998 95.858 162.6787
43.700001 95.814 162.5053
44.400002 95.769 162.2626
45.000000 95.727 162.0503
45.500000 95.694 161.8949
46.200001 95.657 161.6552
46.799999 95.629 161.3846
47.500000 95.593 161.0174
48.200001 95.552 160.6343
48.700001 95.520 160.3715
49.400002 95.474 160.0562
50.000000 95.439 159.8242
50.799999 95.397 159.4874
51.500000 95.347 159.2083
52.200001 95.292 159.0588
53.000000 95.248 158.9406
53.799999 95.202 158.6839
54.500000 95.138 158.4784
55.200001 95.075 158.4186
56.000000 95.033 158.3491
57.000000 94.996 158.0097
58.000000 94.949 157.4883
59.000000 94.875 156.9256
60.000000 94.779 156.6360
60.799999 94.724 156.6601
61.500000 94.704 156.7222
62.200001 94.702 156.6720
63.000000 94.689 156.4375
64.000000 94.627 156.1149
65.000000 94.545 155.9677
66.000000 94.473 155.8508
67.000000 94.391 155.5749
68.000000 94.272 155.4632
69.000000 94.199 155.6609
70.000000 94.178 155.5189
71.000000 94.121 155.1343
72.000000 94.058 154.8480
73.000000 93.984 154.4551
74.000000 93.883 154.3603
75.000000 93.849 154.5526
76.199997 93.864 154.3733
77.500000 93.839 154.0068
78.800003 93.782 153.9113
80.000000 93.735 154.0074
81.199997 93.683 153.9651
82.500000 93.592 153.7661
83.800003 93.486 153.5216
85.000000 93.395 153.2307
86.199997 93.315 153.0126
87.500000 93.269 152.9301
88.500000 93.256 152.8530
90.000000 93.228 152.6787
91.199997 93.176 152.5359
92.500000 93.090 152.4520
93.800003 92.994 152.4987
95.000000 92.924 152.6227
96.199997 92.866 152.6631
97.500000 92.777 152.7014
98.800003 92.661 152.8939
100.000000 92.542 153.1655
101.500000 92.398 153.4456
103.000000 92.270 153.5433
104.400002 92.208 153.5528
106.000000 92.212 153.2866
107.500000 92.223 152.9697
109.000000 92.231 152.8383
110.599998 92.203 152.6632
112.000000 92.122 152.5726
113.800003 92.010 152.6829
115.000000 91.969 152.6503
117.199997 91.888 152.1970
118.000000 91.840 152.0750
120.599998 91.679 152.4543
122.000000 91.638 152.8017
124.099998 91.587 153.0507
125.000000 91.565 153.0990
126.500000 91.526 153.0865
128.000000 91.464 153.0573
131.500000 91.284 153.1937
132.000000 91.259 153.2241
134.000000 91.186 153.2557
136.000000 91.133 153.2176
138.000000 91.053 153.5823
140.000000 91.015 154.5751
143.000000 90.936 154.7257
145.000000 90.782 154.3474
147.500000 90.644 154.0792
150.000000 90.652 154.4667
152.500000 90.673 154.7375
155.000000 90.607 154.9877
157.500000 90.524 154.8997
160.000000 90.472 155.1067
162.500000 90.459 155.1942
165.000000 90.364 155.3594
167.500000 90.268 155.6223
170.000000 90.178 155.7325
172.500000 90.078 156.0126
175.000000 89.999 156.5503
177.500000 89.962 156.9104
180.000000 89.912 156.8813
182.500000 89.818 156.9434
185.000000 89.740 157.3827
187.500000 89.716 157.9686
190.000000 89.719 158.4058
192.500000 89.694 158.4532
195.000000 89.627 158.2823
197.500000 89.574 158.2416
200.000000 89.536 158.3284
203.000000 89.447 158.7645
206.000000 89.371 159.3817
209.000000 89.326 159.9127
212.000000 89.297 160.3766
214.000000 89.277 160.6891
218.000000 89.180 161.5439
220.000000 89.088 161.9017
224.000000 88.934 161.8685
227.000000 88.925 161.7352
230.000000 88.925 162.0522
233.000000 88.878 162.4540
236.000000 88.837 162.7330
240.000000 88.808 163.3758
243.000000 88.762 163.8213
247.000000 88.684 164.0410
250.000000 88.643 164.2420
254.000000 88.604 164.7056
258.000000 88.571 165.0087
262.000000 88.479 165.5578
265.000000 88.433 166.3640
269.000000 88.467 167.0001
272.000000 88.481 167.1459
276.000000 88.472 167.6330
280.000000 88.430 168.2437
285.000000 88.258 168.7051
290.000000 88.217 169.0472
295.000000 88.246 169.0951
300.000000 88.102 168.9370
304.000000 87.994 169.7377
307.000000 87.955 170.5554
311.000000 87.964 171.1757
315.000000 87.962 171.4717
320.000000 87.953 171.9417
325.000000 87.909 172.4579
330.000000 87.871 173.2164
335.000000 87.864 173.7416
340.000000 87.817 174.1317
345.000000 87.778 174.8552
350.000000 87.770 175.4087
355.000000 87.736 175.7373
360.000000 87.707 176.0445
365.000000 87.689 176.3261
370.000000 87.663 176.7394
375.000000 87.629 177.3904
382.000000 87.564 178.3733
387.000000 87.532 178.8489
395.000000 87.514 179.5134
400.000000 87.491 -179.9754
406.000000 87.462 -179.3325
412.000000 87.445 -178.7128
418.000000 87.433 -178.1413
425.000000 87.418 -177.5374
431.000000 87.401 -177.0014
437.000000 87.383 -176.3726
444.000000 87.359 -175.5876
450.000000 87.337 -174.9880
455.000000 87.324 -174.5457
462.000000 87.315 -173.9177
468.000000 87.306 -173.3579
475.000000 87.295 -172.7593
482.000000 87.277 -172.1152
487.000000 87.266 -171.6046
494.000000 87.256 -170.9462
500.000000 87.252 -170.4086
508.000000 87.256 -169.6464
515.000000 87.257 -168.9376
522.000000 87.248 -168.2689
530.000000 87.240 -167.5825
538.000000 87.240 -166.8535
545.000000 87.240 -166.1847
552.000000 87.239 -165.5235
560.000000 87.238 -164.7965
570.000000 87.248 -163.9120
580.000000 87.266 -163.0170
590.000000 87.283 -162.1286
600.000000 87.302 -161.2792
608.000000 87.311 -160.6100
615.000000 87.315 -159.9476
622.000000 87.326 -159.2812
630.000000 87.340 -158.5363
640.000000 87.356 -157.6114
650.000000 87.380 -156.7361
660.000000 87.411 -155.8918
670.000000 87.439 -155.0165
680.000000 87.463 -154.1292
690.000000 87.485 -153.2883
700.000000 87.511 -152.4377
710.000000 87.549 -151.5818
720.000000 87.585 -150.7894
730.000000 87.614 -149.9731
740.000000 87.644 -149.1066
750.000000 87.678 -148.2221
762.000000 87.728 -147.2164
775.000000 87.787 -146.1508
788.000000 87.847 -145.0717
800.000000 87.903 -144.0955
812.000000 87.963 -143.1344
825.000000 88.026 -142.0825
838.000000 88.083 -140.9888
850.000000 88.139 -139.8941
862.000000 88.212 -138.7346
875.000000 88.315 -137.4856
885.000000 88.417 -136.5631
900.000000 88.600 -135.4916
912.000000 88.727 -134.9315
925.000000 88.829 -134.3507
938.000000 88.916 -133.6835
950.000000 88.998 -133.0218
962.000000 89.082 -132.3316
975.000000 89.176 -131.5768
988.000000 89.273 -130.8520
1000.000000 89.367 -130.2069
1015.000000 89.490 -129.4093
1030.000000 89.620 -128.6727
1044.000000 89.740 -128.0468
1060.000000 89.866 -127.3059
1075.000000 89.978 -126.6073
1090.000000 90.096 -125.9839
1106.000000 90.238 -125.3594
1120.000000 90.367 -124.8281
1138.000000 90.531 -124.1843
1150.000000 90.639 -123.7669
1172.000000 90.837 -123.0356
1180.000000 90.909 -122.7818
1206.000000 91.148 -121.9930
1220.000000 91.277 -121.5976
1241.000000 91.466 -120.9999
1250.000000 91.546 -120.7443
1265.000000 91.678 -120.3405
1280.000000 91.814 -119.9636
1315.000000 92.131 -119.1242
1320.000000 92.175 -119.0083
1340.000000 92.346 -118.5577
1360.000000 92.498 -118.1301
1380.000000 92.645 -117.7099
1400.000000 92.807 -117.3017
1430.000000 93.065 -116.7820
1450.000000 93.238 -116.4542
1475.000000 93.454 -116.0660
1500.000000 93.673 -115.7453
1525.000000 93.891 -115.4632
1550.000000 94.104 -115.2304
1575.000000 94.321 -115.0678
1600.000000 94.541 -114.9559
1625.000000 94.759 -114.9120
1650.000000 94.968 -114.9314
1675.000000 95.168 -114.9983
1700.000000 95.370 -115.1393
1725.000000 95.581 -115.3821
1750.000000 95.793 -115.7064
1775.000000 95.996 -116.0946
1800.000000 96.188 -116.5501
1825.000000 96.371 -117.0928
1850.000000 96.542 -117.7103
1875.000000 96.703 -118.3914
1900.000000 96.856 -119.1567
1925.000000 97.000 -119.9972
1950.000000 97.129 -120.8908
1975.000000 97.240 -121.8297
2000.000000 97.338 -122.8111
2030.000000 97.439 -124.0479
2060.000000 97.515 -125.3116
2090.000000 97.566 -126.5734
2120.000000 97.597 -127.8489
2140.000000 97.604 -128.6871
2180.000000 97.585 -130.2898
2200.000000 97.559 -131.0568
2240.000000 97.483 -132.5100
2270.000000 97.407 -133.5001
2300.000000 97.316 -134.3998
2330.000000 97.214 -135.2091
2360.000000 97.098 -135.9162
2400.000000 96.923 -136.6865
2430.000000 96.779 -137.1342
2470.000000 96.582 -137.5847
2500.000000 96.433 -137.8073
2540.000000 96.236 -137.9565
2580.000000 96.041 -137.9490
2620.000000 95.846 -137.7857
2650.000000 95.701 -137.5719
2690.000000 95.507 -137.1574
2720.000000 95.362 -136.7507
2760.000000 95.173 -136.0932
2800.000000 94.992 -135.2817
2850.000000 94.786 -134.0599
2900.000000 94.621 -132.7031
2950.000000 94.506 -131.3786
3000.000000 94.411 -130.1317
3040.000000 94.330 -129.1609
3070.000000 94.264 -128.4234
3110.000000 94.174 -127.4119
3150.000000 94.090 -126.3692
3200.000000 94.004 -125.0368
3250.000000 93.938 -123.6762
3300.000000 93.885 -122.3013
3350.000000 93.841 -120.9102
3400.000000 93.809 -119.5103
3450.000000 93.791 -118.1066
3500.000000 93.785 -116.7005
3550.000000 93.789 -115.2991
3600.000000 93.806 -113.9237
3650.000000 93.844 -112.6019
3700.000000 93.900 -111.3497
3750.000000 93.967 -110.1635
3820.000000 94.067 -108.6207
3870.000000 94.139 -107.6108
3950.000000 94.256 -106.1645
4000.000000 94.336 -105.3798
4060.000000 94.436 -104.5721
4120.000000 94.528 -103.9026
4180.000000 94.604 -103.3615
4250.000000 94.684 -102.9184
4310.000000 94.739 -102.6844
4370.000000 94.769 -102.5578
4440.000000 94.770 -102.5101
4500.000000 94.743 -102.5267
4550.000000 94.696 -102.5476
4620.000000 94.588 -102.5317
4680.000000 94.468 -102.4525
4750.000000 94.312 -102.2531
4820.000000 94.142 -101.8955
4870.000000 94.015 -101.5423
4940.000000 93.833 -100.9360
5000.000000 93.671 -100.3257
5080.000000 93.440 -99.3831
5150.000000 93.229 -98.4326
5220.000000 93.015 -97.3470
5300.000000 92.763 -95.9141
5380.000000 92.510 -94.2865
5450.000000 92.296 -92.6865
5520.000000 92.098 -90.9177
5600.000000 91.895 -88.7111
5700.000000 91.684 -85.7366
5800.000000 91.535 -82.6473
5900.000000 91.431 -79.5171
6000.000000 91.354 -76.3968
6080.000000 91.315 -73.9578
6150.000000 91.303 -71.8865
6220.000000 91.308 -69.8776
6300.000000 91.329 -67.6564
6400.000000 91.373 -64.9834
6500.000000 91.424 -62.3740
6600.000000 91.474 -59.7556
6700.000000 91.539 -57.0739
6800.000000 91.647 -54.3297
6900.000000 91.827 -51.5751
7000.000000 92.090 -48.9024
7100.000000 92.425 -46.4106
7200.000000 92.824 -44.1807
7300.000000 93.278 -42.2653
7400.000000 93.796 -40.7086
7500.000000 94.413 -39.6702
7620.000000 95.312 -39.6143
7750.000000 96.403 -42.0193
7880.000000 97.337 -48.2186
8000.000000 97.795 -57.5280
8120.000000 97.626 -68.6981
8250.000000 96.657 -79.6324
8380.000000 95.078 -86.6866
8500.000000 93.384 -89.3195
8620.000000 91.706 -88.9571
8750.000000 90.058 -86.3277
8850.000000 88.947 -83.4755
9000.000000 87.472 -78.6755
9120.000000 86.363 -74.2654
9250.000000 85.221 -68.5105
9380.000000 84.214 -61.8958
9500.000000 83.435 -55.4538
9620.000000 82.780 -48.9303
9750.000000 82.179 -41.8361
9880.000000 81.676 -34.7324
10000.000000 81.290 -28.1813
10150.000000 80.910 -20.0387
10300.000000 80.634 -11.9855
10440.000000 80.461 -4.5796
10600.000000 80.351 3.7805
10750.000000 80.333 11.6014
10900.000000 80.429 19.4506
11060.000000 80.720 27.7100
11200.000000 81.169 34.5414
11380.000000 82.025 42.2235
11500.000000 82.767 46.2688
11720.000000 84.419 50.0052
11800.000000 85.054 49.6691
12060.000000 86.610 40.3163
12200.000000 86.717 31.0905
12410.000000 85.626 18.1308
12500.000000 84.782 14.5851
12650.000000 83.104 12.0499
12800.000000 81.332 13.1080
13150.000000 77.691 23.8368
13200.000000 77.251 25.8813
13400.000000 75.664 34.6027
13600.000000 74.270 44.0699
13800.000000 73.030 54.6010
14000.000000 71.984 66.0779
14300.000000 70.785 84.8508
14500.000000 70.337 98.6190
14750.000000 70.453 115.9905
15000.000000 71.337 130.5072
15250.000000 72.592 139.6327
15500.000000 73.701 141.8431
15750.000000 73.866 138.4081
16000.000000 72.717 138.0912
16250.000000 71.097 146.9821
16500.000000 70.238 161.1122
16750.000000 70.340 174.5629
17000.000000 70.913 -175.0802
17250.000000 71.660 -168.1890
17500.000000 72.367 -165.4866
17750.000000 72.619 -167.1875
18000.000000 72.042 -170.2722
18250.000000 70.691 -170.1954
18500.000000 69.005 -165.0620
18750.000000 67.500 -155.5996
19000.000000 66.446 -143.2203
19250.000000 65.725 -129.0970
19500.000000 65.083 -114.1622
19750.000000 64.449 -99.0854
20000.000000 63.815 -84.4880
20300.000000 63.048 -68.3352
20600.000000 62.184 -53.3536
20900.000000 60.995 -37.4669
21200.000000 59.642 -18.9435
21400.000000 58.972 -9.8950
21800.000000 58.011 -119.1542
22000.000000 56.829 -98.1957
22400.000000 51.523 83.1421
22700.000000 45.300 -140.0381
23000.000000 38.268 88.5059
23300.000000 33.207 72.8027
23600.000000 31.571 80.2148
24000.000000 30.929 99.8633
