* Measurement data measured by REW V5.20.13
* Source: Headset (DS by VECLAN.COM), MICROPHONE (Master Volume), L, volume: 0.720. Timing signal peak level -15.9 dBFS, measurement signal peak level -15.4 dBFS
* Format: 4M Log Swept Sine, 1 sweep at -12.0 dBFS using an acoustic timing reference
* Dated: Dec 6, 2023 10:01:32 AM
* REW Settings:
*  C-weighting compensation: Off
*  Target level: 75.0 dB
* Note: ; Apple + Abigail Delay -0.0681 ms (-23 mm, -0.92 in) using estimated IR delay relative to Acoustic reference played from  L with no timing offset Clock adjustment: -0.1 ppm
* Measurement: Brass CP145 L
* Smoothing: 1/24 octave
* Frequency Step: 1/48 octave
* Start Frequency: 1.000 Hz
*
* Freq(Hz) SPL(dB) Phase(degrees)
1.000000 68.158 -17.0782
1.015000 68.463 -17.9779
1.030000 68.765 -18.8437
1.044000 69.043 -19.6178
1.060000 69.356 -20.4583
1.075000 69.643 -21.1997
1.090000 69.925 -21.8922
1.106000 70.217 -22.5734
1.120000 70.475 -23.1234
1.138000 70.809 -23.7723
1.150000 71.033 -24.1710
1.172000 71.446 -24.8376
1.180000 71.597 -25.0609
1.206000 72.088 -25.7244
1.220000 72.352 -26.0463
1.241000 72.747 -26.4898
1.250000 72.915 -26.6673
1.265000 73.195 -26.9489
1.280000 73.472 -27.2154
1.315000 74.109 -27.7966
1.320000 74.198 -27.8767
1.340000 74.551 -28.1945
1.360000 74.896 -28.5138
1.380000 75.233 -28.8421
1.400000 75.559 -29.1869
1.430000 76.027 -29.7517
1.450000 76.323 -30.1709
1.475000 76.673 -30.7511
1.500000 77.004 -31.3583
1.525000 77.317 -31.9800
1.550000 77.614 -32.6131
1.575000 77.897 -33.2547
1.600000 78.166 -33.9016
1.625000 78.423 -34.5509
1.650000 78.669 -35.1996
1.675000 78.907 -35.8445
1.700000 79.138 -36.4828
1.725000 79.362 -37.1113
1.750000 79.582 -37.7270
1.775000 79.799 -38.3270
1.800000 80.015 -38.9081
1.825000 80.230 -39.4674
1.850000 80.444 -40.0027
1.875000 80.649 -40.5160
1.900000 80.847 -41.0100
1.925000 81.037 -41.4873
1.950000 81.222 -41.9508
1.975000 81.401 -42.4031
2.000000 81.575 -42.8470
2.030000 81.778 -43.3723
2.060000 81.978 -43.8941
2.090000 82.174 -44.4169
2.120000 82.368 -44.9456
2.140000 82.498 -45.3036
2.180000 82.758 -46.0391
2.200000 82.889 -46.4194
2.240000 83.150 -47.1933
2.270000 83.344 -47.7801
2.300000 83.535 -48.3717
2.330000 83.724 -48.9673
2.360000 83.910 -49.5661
2.400000 84.155 -50.3683
2.430000 84.335 -50.9717
2.470000 84.572 -51.7773
2.500000 84.746 -52.3812
2.540000 84.975 -53.1848
2.580000 85.198 -53.9859
2.620000 85.416 -54.7920
2.650000 85.577 -55.3998
2.690000 85.786 -56.2127
2.720000 85.941 -56.8228
2.760000 86.143 -57.6350
2.800000 86.340 -58.4434
2.850000 86.581 -59.4450
2.900000 86.816 -60.4321
2.950000 87.045 -61.4004
3.000000 87.266 -62.3521
3.040000 87.438 -63.1037
3.070000 87.565 -63.6627
3.110000 87.729 -64.4029
3.150000 87.891 -65.1385
3.200000 88.087 -66.0538
3.250000 88.279 -66.9670
3.300000 88.466 -67.8809
3.350000 88.648 -68.7996
3.400000 88.824 -69.7213
3.450000 88.995 -70.6411
3.500000 89.161 -71.5543
3.550000 89.323 -72.4560
3.600000 89.481 -73.3415
3.650000 89.635 -74.2059
3.700000 89.785 -75.0461
3.750000 89.931 -75.8653
3.820000 90.128 -76.9834
3.870000 90.264 -77.7660
3.950000 90.474 -78.9995
4.000000 90.602 -79.7641
4.060000 90.751 -80.6799
4.120000 90.894 -81.5923
4.180000 91.033 -82.4968
4.250000 91.190 -83.5356
4.310000 91.320 -84.4067
4.370000 91.447 -85.2551
4.440000 91.592 -86.2106
4.500000 91.712 -87.0015
4.550000 91.809 -87.6443
4.620000 91.942 -88.5246
4.680000 92.053 -89.2660
4.750000 92.181 -90.1222
4.820000 92.306 -90.9697
4.870000 92.394 -91.5656
4.940000 92.515 -92.3875
5.000000 92.616 -93.0816
5.080000 92.748 -93.9937
5.150000 92.861 -94.7804
5.220000 92.971 -95.5546
5.300000 93.093 -96.4244
5.380000 93.212 -97.2800
5.450000 93.313 -98.0186
5.520000 93.412 -98.7489
5.600000 93.522 -99.5718
5.700000 93.654 -100.5829
5.800000 93.781 -101.5752
5.900000 93.905 -102.5494
6.000000 94.024 -103.5036
6.080000 94.117 -104.2540
6.150000 94.196 -104.9027
6.220000 94.273 -105.5450
6.300000 94.358 -106.2716
6.400000 94.462 -107.1668
6.500000 94.561 -108.0478
6.600000 94.657 -108.9147
6.700000 94.747 -109.7701
6.800000 94.834 -110.6120
6.900000 94.917 -111.4355
7.000000 94.997 -112.2362
7.100000 95.073 -113.0146
7.200000 95.146 -113.7734
7.300000 95.218 -114.5149
7.400000 95.287 -115.2392
7.500000 95.355 -115.9446
7.620000 95.434 -116.7715
7.750000 95.517 -117.6494
7.880000 95.598 -118.5049
8.000000 95.670 -119.2799
8.120000 95.740 -120.0464
8.250000 95.814 -120.8649
8.380000 95.885 -121.6709
8.500000 95.948 -122.4041
8.620000 96.008 -123.1272
8.750000 96.070 -123.8976
8.850000 96.116 -124.4801
9.000000 96.182 -125.3378
9.120000 96.233 -126.0109
9.250000 96.287 -126.7272
9.380000 96.340 -127.4298
9.500000 96.385 -128.0681
9.620000 96.427 -128.6979
9.750000 96.468 -129.3695
9.880000 96.502 -130.0297
10.000000 96.525 -130.6303
10.150000 96.544 -131.3672
10.300000 96.553 -132.0789
10.440000 96.554 -132.7187
10.600000 96.556 -133.4269
10.750000 96.555 -134.0692
10.900000 96.555 -134.6927
11.060000 96.556 -135.3524
11.200000 96.558 -135.9245
11.380000 96.562 -136.6484
11.500000 96.564 -137.1232
11.720000 96.568 -137.9775
11.800000 96.570 -138.2823
12.060000 96.577 -139.2543
12.200000 96.582 -139.7708
12.410000 96.590 -140.5334
12.500000 96.593 -140.8531
12.650000 96.598 -141.3772
12.800000 96.601 -141.8893
13.150000 96.608 -143.0332
13.200000 96.610 -143.1915
13.400000 96.615 -143.8113
13.600000 96.622 -144.4128
13.800000 96.631 -144.9959
14.000000 96.640 -145.5679
14.300000 96.653 -146.4073
14.500000 96.661 -146.9556
14.750000 96.671 -147.6282
15.000000 96.680 -148.2866
15.250000 96.691 -148.9332
15.500000 96.702 -149.5608
15.750000 96.712 -150.1659
16.000000 96.720 -150.7442
16.250000 96.728 -151.3004
16.500000 96.735 -151.8371
16.750000 96.743 -152.3573
17.000000 96.753 -152.8651
17.250000 96.764 -153.3626
17.500000 96.776 -153.8524
17.750000 96.787 -154.3386
18.000000 96.797 -154.8230
18.250000 96.805 -155.3078
18.500000 96.812 -155.7875
18.750000 96.819 -156.2584
19.000000 96.825 -156.7170
19.250000 96.832 -157.1630
19.500000 96.839 -157.5967
19.750000 96.846 -158.0186
20.000000 96.853 -158.4305
20.299999 96.862 -158.9152
20.600000 96.871 -159.3922
20.900000 96.880 -159.8628
21.200001 96.886 -160.3253
21.400000 96.890 -160.6261
21.799999 96.896 -161.2065
22.000000 96.899 -161.4861
22.400000 96.905 -162.0301
22.700001 96.910 -162.4335
23.000000 96.916 -162.8408
23.299999 96.920 -163.2537
23.600000 96.921 -163.6664
24.000000 96.919 -164.2000
24.299999 96.914 -164.5732
24.700001 96.908 -165.0269
25.000000 96.906 -165.3413
25.400000 96.908 -165.7479
25.799999 96.913 -166.1681
26.200001 96.919 -166.6149
26.500000 96.921 -166.9615
26.900000 96.919 -167.4210
27.200001 96.914 -167.7509
27.600000 96.907 -168.1642
28.000000 96.900 -168.5536
28.500000 96.895 -169.0278
29.000000 96.892 -169.5013
29.500000 96.890 -169.9698
30.000000 96.886 -170.4266
30.400000 96.882 -170.7850
30.700001 96.879 -171.0519
31.100000 96.875 -171.4074
31.500000 96.871 -171.7617
32.000000 96.865 -172.1962
32.500000 96.858 -172.6122
33.000000 96.849 -173.0071
33.500000 96.840 -173.3873
34.000000 96.832 -173.7635
34.500000 96.825 -174.1405
35.000000 96.818 -174.5137
35.500000 96.809 -174.8758
36.000000 96.800 -175.2210
36.500000 96.791 -175.5504
37.000000 96.781 -175.8750
37.500000 96.772 -176.2033
38.200001 96.758 -176.6618
38.700001 96.747 -176.9818
39.500000 96.731 -177.4854
40.000000 96.721 -177.7956
40.599998 96.710 -178.1595
41.200001 96.698 -178.5128
41.799999 96.686 -178.8572
42.500000 96.674 -179.2505
43.099998 96.664 -179.5815
43.700001 96.654 -179.9042
44.400002 96.642 179.7305
45.000000 96.630 179.4242
45.500000 96.620 179.1750
46.200001 96.605 178.8382
46.799999 96.593 178.5540
47.500000 96.579 178.2125
48.200001 96.563 177.8675
48.700001 96.550 177.6308
49.400002 96.532 177.3138
50.000000 96.518 177.0431
50.799999 96.499 176.6754
51.500000 96.481 176.3633
52.200001 96.463 176.0714
53.000000 96.447 175.7436
53.799999 96.430 175.4051
54.500000 96.411 175.1162
55.200001 96.391 174.8460
56.000000 96.370 174.5446
57.000000 96.343 174.1729
58.000000 96.316 173.8308
59.000000 96.291 173.4642
60.000000 96.259 173.0826
60.799999 96.233 172.8119
61.500000 96.214 172.5919
62.200001 96.195 172.3699
63.000000 96.172 172.1159
64.000000 96.142 171.8075
65.000000 96.114 171.5014
66.000000 96.086 171.1948
67.000000 96.057 170.8956
68.000000 96.028 170.6132
69.000000 95.998 170.3421
70.000000 95.970 170.0689
71.000000 95.939 169.7912
72.000000 95.907 169.5204
73.000000 95.876 169.2668
74.000000 95.844 169.0225
75.000000 95.811 168.7797
76.199997 95.771 168.4995
77.500000 95.732 168.2077
78.800003 95.693 167.9139
80.000000 95.656 167.6574
81.199997 95.618 167.4113
82.500000 95.575 167.1467
83.800003 95.531 166.8942
85.000000 95.493 166.6660
86.199997 95.458 166.4257
87.500000 95.418 166.1690
88.500000 95.388 165.9863
90.000000 95.341 165.7358
91.199997 95.305 165.5488
92.500000 95.268 165.3419
93.800003 95.230 165.1200
95.000000 95.193 164.9198
96.199997 95.153 164.7435
97.500000 95.113 164.5759
98.800003 95.073 164.4240
100.000000 95.036 164.2778
101.500000 94.987 164.0803
103.000000 94.938 163.8893
104.400002 94.891 163.7150
106.000000 94.838 163.5413
107.500000 94.792 163.3753
109.000000 94.746 163.2097
110.599998 94.698 163.0447
112.000000 94.657 162.9088
113.800003 94.602 162.7535
115.000000 94.564 162.6617
117.199997 94.491 162.4888
118.000000 94.464 162.4336
120.599998 94.387 162.2363
122.000000 94.346 162.1060
124.099998 94.287 161.9382
125.000000 94.262 161.8714
126.500000 94.218 161.7721
128.000000 94.174 161.6893
131.500000 94.080 161.5289
132.000000 94.067 161.5064
134.000000 94.016 161.4172
136.000000 93.965 161.3387
138.000000 93.914 161.2676
140.000000 93.863 161.1860
143.000000 93.793 161.0915
145.000000 93.748 161.0472
147.500000 93.689 161.0086
150.000000 93.628 160.9888
152.500000 93.568 160.9648
155.000000 93.508 160.9211
157.500000 93.447 160.8897
160.000000 93.389 160.8707
162.500000 93.332 160.8657
165.000000 93.275 160.8763
167.500000 93.216 160.8954
170.000000 93.152 160.9190
172.500000 93.089 160.9507
175.000000 93.032 160.9899
177.500000 92.975 161.0355
180.000000 92.918 161.0829
182.500000 92.863 161.1216
185.000000 92.808 161.1611
187.500000 92.752 161.2172
190.000000 92.696 161.2841
192.500000 92.642 161.3490
195.000000 92.591 161.4165
197.500000 92.541 161.5013
200.000000 92.493 161.6026
203.000000 92.438 161.7183
206.000000 92.378 161.8182
209.000000 92.318 161.9035
212.000000 92.263 162.0176
214.000000 92.229 162.1201
218.000000 92.159 162.3226
220.000000 92.124 162.4150
224.000000 92.055 162.5876
227.000000 92.005 162.7081
230.000000 91.955 162.8396
233.000000 91.905 162.9998
236.000000 91.856 163.1758
240.000000 91.791 163.3994
243.000000 91.745 163.5645
247.000000 91.686 163.7976
250.000000 91.641 163.9730
254.000000 91.581 164.2052
258.000000 91.523 164.4507
262.000000 91.469 164.7017
265.000000 91.429 164.8826
269.000000 91.377 165.1239
272.000000 91.340 165.3122
276.000000 91.292 165.5679
280.000000 91.244 165.8264
285.000000 91.185 166.1541
290.000000 91.132 166.4891
295.000000 91.081 166.8267
300.000000 91.028 167.1884
304.000000 90.982 167.4791
307.000000 90.951 167.6768
311.000000 90.915 167.9348
315.000000 90.881 168.2122
320.000000 90.840 168.5689
325.000000 90.796 168.9162
330.000000 90.752 169.2497
335.000000 90.710 169.5813
340.000000 90.670 169.9326
345.000000 90.629 170.2998
350.000000 90.589 170.6631
355.000000 90.550 171.0247
360.000000 90.510 171.3936
365.000000 90.473 171.7634
370.000000 90.436 172.1256
375.000000 90.398 172.4901
382.000000 90.350 172.9965
387.000000 90.314 173.3568
395.000000 90.260 173.9393
400.000000 90.229 174.2953
406.000000 90.196 174.7306
412.000000 90.162 175.1702
418.000000 90.126 175.6121
425.000000 90.084 176.1354
431.000000 90.048 176.5710
437.000000 90.017 176.9938
444.000000 89.983 177.4932
450.000000 89.954 177.9184
455.000000 89.930 178.2713
462.000000 89.898 178.7685
468.000000 89.871 179.2006
475.000000 89.840 179.6960
482.000000 89.811 -179.8164
487.000000 89.792 -179.4656
494.000000 89.767 -178.9783
500.000000 89.747 -178.5591
508.000000 89.719 -177.9885
515.000000 89.692 -177.4796
522.000000 89.667 -176.9639
530.000000 89.642 -176.3696
538.000000 89.619 -175.7765
545.000000 89.600 -175.2439
552.000000 89.583 -174.6951
560.000000 89.566 -174.0680
570.000000 89.549 -173.3018
580.000000 89.534 -172.5204
590.000000 89.520 -171.7341
600.000000 89.508 -170.9637
608.000000 89.497 -170.3480
615.000000 89.491 -169.7962
622.000000 89.487 -169.2333
630.000000 89.483 -168.5963
640.000000 89.478 -167.8251
650.000000 89.476 -167.0566
660.000000 89.476 -166.2777
670.000000 89.477 -165.5026
680.000000 89.481 -164.7400
690.000000 89.489 -163.9742
700.000000 89.498 -163.2090
710.000000 89.512 -162.4401
720.000000 89.528 -161.6717
730.000000 89.543 -160.9188
740.000000 89.560 -160.1649
750.000000 89.582 -159.4079
762.000000 89.610 -158.5036
775.000000 89.643 -157.5241
788.000000 89.679 -156.5509
800.000000 89.716 -155.6636
812.000000 89.755 -154.7741
825.000000 89.803 -153.8194
838.000000 89.854 -152.8868
850.000000 89.903 -152.0264
862.000000 89.957 -151.1757
875.000000 90.019 -150.2776
885.000000 90.067 -149.5966
900.000000 90.144 -148.5964
912.000000 90.212 -147.8056
925.000000 90.289 -146.9761
938.000000 90.367 -146.1735
950.000000 90.442 -145.4492
962.000000 90.523 -144.7475
975.000000 90.615 -143.9969
988.000000 90.713 -143.2637
1000.000000 90.800 -142.6206
1015.000000 90.900 -141.8944
1030.000000 91.002 -141.2197
1044.000000 91.102 -140.6008
1060.000000 91.218 -139.9198
1075.000000 91.325 -139.3143
1090.000000 91.437 -138.7577
1106.000000 91.566 -138.2096
1120.000000 91.682 -137.7596
1138.000000 91.829 -137.2278
1150.000000 91.927 -136.8936
1172.000000 92.102 -136.3159
1180.000000 92.165 -136.1157
1206.000000 92.366 -135.5209
1220.000000 92.475 -135.2411
1241.000000 92.640 -134.8457
1250.000000 92.710 -134.6786
1265.000000 92.826 -134.4137
1280.000000 92.939 -134.1618
1315.000000 93.193 -133.6286
1320.000000 93.228 -133.5611
1340.000000 93.360 -133.3002
1360.000000 93.471 -133.0433
1380.000000 93.579 -132.7985
1400.000000 93.697 -132.5703
1430.000000 93.875 -132.2376
1450.000000 93.993 -132.0237
1475.000000 94.138 -131.7612
1500.000000 94.279 -131.5109
1525.000000 94.417 -131.2716
1550.000000 94.546 -131.0433
1575.000000 94.671 -130.8261
1600.000000 94.793 -130.6239
1625.000000 94.912 -130.4349
1650.000000 95.031 -130.2405
1675.000000 95.150 -130.0535
1700.000000 95.268 -129.8812
1725.000000 95.381 -129.7116
1750.000000 95.494 -129.5508
1775.000000 95.607 -129.3936
1800.000000 95.717 -129.2367
1825.000000 95.825 -129.0893
1850.000000 95.932 -128.9393
1875.000000 96.038 -128.7702
1900.000000 96.146 -128.5793
1925.000000 96.258 -128.3670
1950.000000 96.378 -128.1501
1975.000000 96.512 -127.9549
2000.000000 96.654 -127.8318
2030.000000 96.826 -127.8393
2060.000000 96.998 -128.0012
2090.000000 97.162 -128.2852
2120.000000 97.310 -128.6526
2140.000000 97.399 -128.9229
2180.000000 97.560 -129.4877
2200.000000 97.630 -129.7756
2240.000000 97.759 -130.3445
2270.000000 97.846 -130.7694
2300.000000 97.925 -131.1948
2330.000000 97.998 -131.6151
2360.000000 98.065 -132.0334
2400.000000 98.145 -132.5794
2430.000000 98.199 -132.9759
2470.000000 98.264 -133.4990
2500.000000 98.309 -133.8862
2540.000000 98.364 -134.4229
2580.000000 98.411 -134.9921
2620.000000 98.446 -135.5875
2650.000000 98.464 -136.0397
2690.000000 98.475 -136.6215
2720.000000 98.473 -137.0294
2760.000000 98.458 -137.5329
2800.000000 98.433 -137.9855
2850.000000 98.392 -138.4700
2900.000000 98.342 -138.8471
2950.000000 98.285 -139.1023
3000.000000 98.227 -139.2234
3040.000000 98.185 -139.2691
3070.000000 98.157 -139.2786
3110.000000 98.124 -139.2556
3150.000000 98.099 -139.2142
3200.000000 98.074 -139.1719
3250.000000 98.050 -139.1531
3300.000000 98.022 -139.1491
3350.000000 97.988 -139.1420
3400.000000 97.951 -139.1070
3450.000000 97.916 -139.0264
3500.000000 97.884 -138.9059
3550.000000 97.855 -138.7473
3600.000000 97.829 -138.5495
3650.000000 97.808 -138.3276
3700.000000 97.789 -138.1018
3750.000000 97.774 -137.8739
3820.000000 97.753 -137.5437
3870.000000 97.737 -137.2973
3950.000000 97.705 -136.8629
4000.000000 97.686 -136.5684
4060.000000 97.670 -136.2027
4120.000000 97.659 -135.8264
4180.000000 97.654 -135.4487
4250.000000 97.654 -135.0023
4310.000000 97.658 -134.6084
4370.000000 97.676 -134.2416
4440.000000 97.716 -134.0331
4500.000000 97.741 -134.1333
4550.000000 97.735 -134.3335
4620.000000 97.685 -134.6060
4680.000000 97.615 -134.7337
4750.000000 97.521 -134.7152
4820.000000 97.428 -134.5434
4870.000000 97.368 -134.3596
4940.000000 97.292 -134.0805
5000.000000 97.234 -133.8548
5080.000000 97.163 -133.5903
5150.000000 97.096 -133.4258
5220.000000 97.020 -133.3138
5300.000000 96.922 -133.2079
5380.000000 96.814 -133.0854
5450.000000 96.713 -132.9394
5520.000000 96.608 -132.7586
5600.000000 96.485 -132.5117
5700.000000 96.328 -132.1401
5800.000000 96.169 -131.7311
5900.000000 96.007 -131.3201
6000.000000 95.833 -130.9518
6080.000000 95.678 -130.6721
6150.000000 95.524 -130.3974
6220.000000 95.349 -130.0421
6300.000000 95.122 -129.4476
6400.000000 94.809 -128.2568
6500.000000 94.499 -126.4547
6600.000000 94.233 -124.0755
6700.000000 94.042 -121.2966
6800.000000 93.946 -118.3322
6900.000000 93.960 -115.3248
7000.000000 94.084 -112.3530
7100.000000 94.305 -109.5012
7200.000000 94.625 -106.9083
7300.000000 95.042 -104.7811
7400.000000 95.542 -103.3240
7500.000000 96.108 -102.7304
7620.000000 96.837 -103.4128
7750.000000 97.587 -106.0873
7880.000000 98.089 -110.7236
8000.000000 98.248 -116.2749
8120.000000 98.089 -122.2241
8250.000000 97.573 -128.0872
8380.000000 96.781 -132.5358
8500.000000 95.899 -135.0985
8620.000000 94.952 -136.2154
8750.000000 93.918 -136.0037
8850.000000 93.149 -135.0276
9000.000000 92.071 -132.5301
9120.000000 91.284 -129.8338
9250.000000 90.514 -126.3856
9380.000000 89.833 -122.5318
9500.000000 89.281 -118.7038
9620.000000 88.800 -114.6822
9750.000000 88.359 -110.1543
9880.000000 87.998 -105.4847
10000.000000 87.734 -101.0923
10150.000000 87.493 -95.5458
10300.000000 87.347 -89.9973
10440.000000 87.296 -84.8852
10600.000000 87.342 -79.1998
10750.000000 87.489 -74.0801
10900.000000 87.741 -69.2369
11060.000000 88.131 -64.5133
11200.000000 88.574 -60.8915
11380.000000 89.288 -57.1776
11500.000000 89.849 -55.5076
11720.000000 91.000 -54.8637
11800.000000 91.425 -55.6255
12060.000000 92.535 -62.4320
12200.000000 92.771 -68.4581
12410.000000 92.452 -78.3392
12500.000000 92.074 -82.0916
12650.000000 91.197 -86.9236
12800.000000 90.126 -89.6943
13150.000000 87.500 -89.2074
13200.000000 87.149 -88.5385
13400.000000 85.849 -84.8390
13600.000000 84.739 -79.9371
13800.000000 83.831 -74.2895
14000.000000 83.121 -68.2195
14300.000000 82.383 -58.7959
14500.000000 82.095 -52.5526
14750.000000 81.965 -45.0550
15000.000000 82.090 -38.2058
15250.000000 82.493 -32.4142
15500.000000 83.230 -28.2725
15750.000000 84.298 -26.8632
16000.000000 85.525 -30.0317
16250.000000 86.475 -39.9354
16500.000000 86.542 -56.3225
16750.000000 85.391 -75.2860
17000.000000 82.819 -88.1164
17250.000000 78.638 -78.5105
17500.000000 75.313 -62.1808
17750.000000 73.879 -53.0701
18000.000000 72.741 -45.8815
18250.000000 71.630 -38.3823
18500.000000 70.573 -30.4848
18750.000000 69.561 -22.4867
19000.000000 68.576 -14.3466
19250.000000 67.587 -5.8605
19500.000000 66.566 3.0766
19750.000000 65.539 12.5924
20000.000000 64.490 22.8720
20300.000000 63.267 36.3981
20600.000000 62.282 51.0439
20900.000000 61.659 66.4736
21200.000000 61.482 81.8013
21400.000000 61.618 91.1993
21800.000000 62.236 103.8143
22000.000000 62.480 97.3136
22400.000000 61.898 145.0175
22700.000000 59.276 84.3149
23000.000000 53.907 14.1934
23300.000000 46.696 -18.5117
23600.000000 41.106 -62.7383
24000.000000 39.658 -38.1562
