* Measurement data measured by REW V5.20.13
* Source: Headset (DS by VECLAN.COM), MICROPHONE (Master Volume), L, volume: 0.720. Timing signal peak level -16.9 dBFS, measurement signal peak level -13.3 dBFS
* Format: 4M Log Swept Sine, 1 sweep at -12.0 dBFS using an acoustic timing reference
* Dated: Dec 5, 2023 2:44:08 PM
* REW Settings:
*  C-weighting compensation: Off
*  Target level: 75.0 dB
* Note: ; Apple + Abigail Delay -0.0543 ms (-19 mm, -0.73 in) using estimated IR delay relative to Acoustic reference played from  R with no timing offset
* Measurement: QKZ HBB S1 R
* Smoothing: 1/24 octave
* Frequency Step: 1/48 octave
* Start Frequency: 1.000 Hz
*
* Freq(Hz) SPL(dB) Phase(degrees)
1.000000 63.220 -54.4001
1.015000 63.522 -52.5634
1.030000 63.821 -50.8287
1.044000 64.097 -49.3099
1.060000 64.407 -47.7024
1.075000 64.691 -46.3290
1.090000 64.969 -45.0943
1.106000 65.258 -43.9417
1.120000 65.512 -43.0809
1.138000 65.841 -42.1654
1.150000 66.062 -41.6663
1.172000 66.468 -40.9618
1.180000 66.617 -40.7679
1.206000 67.098 -40.3405
1.220000 67.357 -40.2249
1.241000 67.744 -40.1780
1.250000 67.909 -40.1981
1.265000 68.182 -40.2766
1.280000 68.453 -40.4023
1.315000 69.075 -40.8186
1.320000 69.162 -40.8863
1.340000 69.508 -41.1620
1.360000 69.845 -41.4264
1.380000 70.174 -41.6541
1.400000 70.492 -41.8199
1.430000 70.950 -41.8970
1.450000 71.240 -41.7970
1.475000 71.583 -41.4720
1.500000 71.907 -41.0314
1.525000 72.214 -40.5175
1.550000 72.504 -39.9447
1.575000 72.780 -39.3275
1.600000 73.043 -38.6803
1.625000 73.294 -38.0174
1.650000 73.535 -37.3534
1.675000 73.768 -36.7026
1.700000 73.994 -36.0794
1.725000 74.214 -35.4983
1.750000 74.430 -34.9737
1.775000 74.644 -34.5200
1.800000 74.857 -34.1517
1.825000 75.070 -33.8830
1.850000 75.282 -33.7200
1.875000 75.487 -33.6445
1.900000 75.684 -33.6462
1.925000 75.874 -33.7155
1.950000 76.058 -33.8429
1.975000 76.237 -34.0187
2.000000 76.412 -34.2333
2.030000 76.618 -34.5287
2.060000 76.820 -34.8496
2.090000 77.019 -35.1796
2.120000 77.218 -35.5019
2.140000 77.350 -35.7045
2.180000 77.617 -36.0577
2.200000 77.752 -36.1988
2.240000 78.023 -36.4537
2.270000 78.224 -36.6395
2.300000 78.424 -36.8228
2.330000 78.622 -37.0055
2.360000 78.818 -37.1894
2.400000 79.078 -37.4400
2.430000 79.270 -37.6342
2.470000 79.522 -37.9054
2.500000 79.710 -38.1203
2.540000 79.955 -38.4259
2.580000 80.197 -38.7557
2.620000 80.434 -39.0999
2.650000 80.610 -39.3664
2.690000 80.841 -39.7338
2.720000 81.011 -40.0191
2.760000 81.235 -40.4133
2.800000 81.456 -40.8245
2.850000 81.727 -41.3644
2.900000 81.992 -41.9351
2.950000 82.252 -42.5423
3.000000 82.506 -43.2096
3.040000 82.705 -43.7795
3.070000 82.851 -44.2215
3.110000 83.044 -44.8224
3.150000 83.233 -45.4273
3.200000 83.466 -46.1741
3.250000 83.693 -46.8924
3.300000 83.917 -47.5629
3.350000 84.135 -48.1796
3.400000 84.349 -48.7575
3.450000 84.558 -49.3117
3.500000 84.762 -49.8571
3.550000 84.962 -50.4089
3.600000 85.158 -50.9822
3.650000 85.350 -51.5919
3.700000 85.538 -52.2509
3.750000 85.722 -52.9531
3.820000 85.973 -53.9808
3.870000 86.147 -54.7266
3.950000 86.418 -55.8996
4.000000 86.583 -56.5969
4.060000 86.776 -57.3770
4.120000 86.963 -58.1094
4.180000 87.145 -58.8097
4.250000 87.350 -59.6041
4.310000 87.522 -60.2810
4.370000 87.690 -60.9684
4.440000 87.881 -61.7979
4.500000 88.040 -62.5254
4.550000 88.169 -63.1357
4.620000 88.345 -63.9851
4.680000 88.493 -64.6980
4.750000 88.663 -65.4985
4.820000 88.829 -66.2570
4.870000 88.945 -66.7785
4.940000 89.105 -67.4874
5.000000 89.239 -68.0817
5.080000 89.413 -68.8653
5.150000 89.563 -69.5520
5.220000 89.710 -70.2364
5.300000 89.873 -71.0101
5.380000 90.033 -71.7710
5.450000 90.170 -72.4231
5.520000 90.304 -73.0599
5.600000 90.455 -73.7697
5.700000 90.638 -74.6335
5.800000 90.818 -75.4757
5.900000 90.995 -76.2988
6.000000 91.169 -77.0955
6.080000 91.306 -77.7194
6.150000 91.424 -78.2613
6.220000 91.540 -78.8039
6.300000 91.672 -79.4261
6.400000 91.835 -80.2006
6.500000 91.994 -80.9698
6.600000 92.149 -81.7318
6.700000 92.300 -82.4864
6.800000 92.447 -83.2343
6.900000 92.591 -83.9760
7.000000 92.730 -84.7122
7.100000 92.866 -85.4447
7.200000 92.998 -86.1703
7.300000 93.128 -86.8848
7.400000 93.254 -87.5851
7.500000 93.377 -88.2731
7.620000 93.520 -89.0860
7.750000 93.672 -89.9548
7.880000 93.818 -90.8107
8.000000 93.950 -91.5881
8.120000 94.078 -92.3531
8.250000 94.213 -93.1678
8.380000 94.345 -93.9681
8.500000 94.463 -94.6941
8.620000 94.578 -95.4075
8.750000 94.699 -96.1676
8.850000 94.791 -96.7438
9.000000 94.926 -97.5924
9.120000 95.032 -98.2621
9.250000 95.146 -98.9806
9.380000 95.259 -99.6901
9.500000 95.360 -100.3421
9.620000 95.456 -100.9944
9.750000 95.557 -101.6992
9.880000 95.649 -102.4003
10.000000 95.725 -103.0459
10.150000 95.808 -103.8482
10.300000 95.883 -104.6329
10.440000 95.942 -105.3485
10.600000 96.004 -106.1484
10.750000 96.062 -106.8782
10.900000 96.117 -107.5918
11.060000 96.177 -108.3476
11.200000 96.230 -109.0042
11.380000 96.296 -109.8369
11.500000 96.340 -110.3837
11.720000 96.418 -111.3715
11.800000 96.447 -111.7259
12.060000 96.540 -112.8633
12.200000 96.590 -113.4731
12.410000 96.665 -114.3814
12.500000 96.696 -114.7657
12.650000 96.747 -115.4009
12.800000 96.795 -116.0262
13.150000 96.902 -117.4397
13.200000 96.917 -117.6360
13.400000 96.976 -118.4071
13.600000 97.036 -119.1545
13.800000 97.095 -119.8765
14.000000 97.155 -120.5811
14.300000 97.245 -121.6104
14.500000 97.305 -122.2845
14.750000 97.381 -123.1238
15.000000 97.458 -123.9653
15.250000 97.536 -124.8207
15.500000 97.612 -125.6825
15.750000 97.684 -126.5449
16.000000 97.749 -127.3955
16.250000 97.809 -128.2258
16.500000 97.864 -129.0306
16.750000 97.916 -129.8031
17.000000 97.969 -130.5447
17.250000 98.021 -131.2602
17.500000 98.075 -131.9559
17.750000 98.129 -132.6458
18.000000 98.182 -133.3361
18.250000 98.233 -134.0338
18.500000 98.283 -134.7344
18.750000 98.330 -135.4319
19.000000 98.375 -136.1207
19.250000 98.419 -136.7964
19.500000 98.461 -137.4578
19.750000 98.502 -138.1041
20.000000 98.543 -138.7370
20.299999 98.590 -139.4831
20.600000 98.637 -140.2179
20.900000 98.681 -140.9435
21.200001 98.724 -141.6594
21.400000 98.751 -142.1295
21.799999 98.802 -143.0508
22.000000 98.826 -143.5023
22.400000 98.873 -144.3902
22.700001 98.906 -145.0452
23.000000 98.938 -145.6913
23.299999 98.968 -146.3266
23.600000 98.997 -146.9490
24.000000 99.033 -147.7567
24.299999 99.061 -148.3480
24.700001 99.097 -149.1243
25.000000 99.123 -149.7028
25.400000 99.157 -150.4715
25.799999 99.186 -151.2298
26.200001 99.213 -151.9664
26.500000 99.231 -152.5010
26.900000 99.254 -153.1927
27.200001 99.272 -153.7023
27.600000 99.295 -154.3793
28.000000 99.317 -155.0588
28.500000 99.340 -155.9034
29.000000 99.359 -156.7229
29.500000 99.378 -157.5124
30.000000 99.395 -158.2869
30.400000 99.406 -158.9034
30.700001 99.412 -159.3618
31.100000 99.420 -159.9618
31.500000 99.427 -160.5467
32.000000 99.437 -161.2625
32.500000 99.446 -161.9727
33.000000 99.453 -162.6778
33.500000 99.456 -163.3651
34.000000 99.459 -164.0289
34.500000 99.463 -164.6794
35.000000 99.469 -165.3280
35.500000 99.473 -165.9713
36.000000 99.474 -166.5923
36.500000 99.474 -167.1832
37.000000 99.474 -167.7596
37.500000 99.475 -168.3395
38.200001 99.472 -169.1496
38.700001 99.467 -169.7110
39.500000 99.458 -170.5789
40.000000 99.451 -171.1100
40.599998 99.443 -171.7352
41.200001 99.433 -172.3466
41.799999 99.422 -172.9490
42.500000 99.409 -173.6413
43.099998 99.395 -174.2159
43.700001 99.382 -174.7651
44.400002 99.369 -175.3860
45.000000 99.359 -175.9199
45.500000 99.349 -176.3688
46.200001 99.335 -176.9969
46.799999 99.321 -177.5374
47.500000 99.300 -178.1706
48.200001 99.274 -178.7704
48.700001 99.255 -179.1585
49.400002 99.234 -179.6651
50.000000 99.221 179.8942
50.799999 99.205 179.2786
51.500000 99.188 178.7451
52.200001 99.170 178.2320
53.000000 99.150 177.6527
53.799999 99.125 177.0775
54.500000 99.099 176.5903
55.200001 99.069 176.1241
56.000000 99.034 175.6218
57.000000 98.992 175.0353
58.000000 98.955 174.4462
59.000000 98.918 173.8157
60.000000 98.874 173.1760
60.799999 98.838 172.6922
61.500000 98.809 172.3059
62.200001 98.784 171.9365
63.000000 98.756 171.4993
64.000000 98.713 170.9510
65.000000 98.669 170.4736
66.000000 98.633 170.0217
67.000000 98.598 169.5235
68.000000 98.555 169.0109
69.000000 98.505 168.5375
70.000000 98.457 168.1133
71.000000 98.413 167.6841
72.000000 98.367 167.2273
73.000000 98.317 166.7961
74.000000 98.266 166.4055
75.000000 98.217 166.0290
76.199997 98.162 165.5725
77.500000 98.106 165.0674
78.800003 98.049 164.5757
80.000000 97.996 164.1501
81.199997 97.943 163.7520
82.500000 97.882 163.3537
83.800003 97.822 162.9772
85.000000 97.768 162.6316
86.199997 97.715 162.2746
87.500000 97.658 161.8867
88.500000 97.615 161.5939
90.000000 97.551 161.1694
91.199997 97.500 160.8490
92.500000 97.446 160.5125
93.800003 97.389 160.1945
95.000000 97.335 159.9219
96.199997 97.280 159.6673
97.500000 97.222 159.3980
98.800003 97.164 159.1265
100.000000 97.109 158.8750
101.500000 97.041 158.5551
103.000000 96.975 158.2495
104.400002 96.913 157.9867
106.000000 96.844 157.7095
107.500000 96.780 157.4578
109.000000 96.717 157.2042
110.599998 96.648 156.9301
112.000000 96.586 156.7067
113.800003 96.509 156.4631
115.000000 96.460 156.3067
117.199997 96.366 156.0110
118.000000 96.332 155.9134
120.599998 96.229 155.6007
122.000000 96.178 155.4039
124.099998 96.098 155.1176
125.000000 96.061 155.0136
126.500000 95.999 154.8762
128.000000 95.938 154.7703
131.500000 95.801 154.5190
132.000000 95.782 154.4772
134.000000 95.708 154.2974
136.000000 95.638 154.1340
138.000000 95.572 153.9910
140.000000 95.505 153.8488
143.000000 95.405 153.6862
145.000000 95.343 153.5854
147.500000 95.265 153.4518
150.000000 95.185 153.3558
152.500000 95.104 153.2758
155.000000 95.023 153.1846
157.500000 94.946 153.0861
160.000000 94.869 152.9998
162.500000 94.792 152.9551
165.000000 94.718 152.9293
167.500000 94.643 152.9059
170.000000 94.561 152.8908
172.500000 94.478 152.8993
175.000000 94.402 152.9098
177.500000 94.330 152.8992
180.000000 94.259 152.8736
182.500000 94.187 152.8652
185.000000 94.114 152.8889
187.500000 94.041 152.9351
190.000000 93.967 152.9839
192.500000 93.895 153.0225
195.000000 93.828 153.0556
197.500000 93.764 153.0993
200.000000 93.703 153.1547
203.000000 93.633 153.2261
206.000000 93.560 153.2983
209.000000 93.483 153.3742
212.000000 93.410 153.4811
214.000000 93.363 153.5672
218.000000 93.272 153.7173
220.000000 93.228 153.7799
224.000000 93.143 153.9149
227.000000 93.079 154.0254
230.000000 93.013 154.1468
233.000000 92.950 154.2904
236.000000 92.889 154.4447
240.000000 92.808 154.6456
243.000000 92.747 154.7888
247.000000 92.668 154.9786
250.000000 92.612 155.1248
254.000000 92.539 155.3441
258.000000 92.465 155.5769
262.000000 92.391 155.7999
265.000000 92.340 155.9698
269.000000 92.275 156.1955
272.000000 92.226 156.3594
276.000000 92.163 156.5802
280.000000 92.100 156.8207
285.000000 92.019 157.1399
290.000000 91.942 157.4578
295.000000 91.872 157.7810
300.000000 91.809 158.1306
304.000000 91.757 158.3896
307.000000 91.719 158.5564
311.000000 91.673 158.7903
315.000000 91.627 159.0572
320.000000 91.570 159.3950
325.000000 91.509 159.7191
330.000000 91.450 160.0539
335.000000 91.396 160.3835
340.000000 91.344 160.7110
345.000000 91.293 161.0581
350.000000 91.240 161.4090
355.000000 91.187 161.7653
360.000000 91.133 162.1266
365.000000 91.085 162.4733
370.000000 91.038 162.8143
375.000000 90.992 163.1580
382.000000 90.930 163.6438
387.000000 90.886 163.9925
395.000000 90.816 164.5390
400.000000 90.775 164.8762
406.000000 90.728 165.3119
412.000000 90.681 165.7521
418.000000 90.636 166.1784
425.000000 90.585 166.6799
431.000000 90.542 167.1081
437.000000 90.502 167.5246
444.000000 90.459 168.0043
450.000000 90.419 168.4218
455.000000 90.385 168.7779
462.000000 90.336 169.2669
468.000000 90.291 169.6967
475.000000 90.241 170.2257
482.000000 90.206 170.7185
487.000000 90.193 171.0365
494.000000 90.179 171.4807
500.000000 90.163 171.8930
508.000000 90.128 172.4632
515.000000 90.091 172.9680
522.000000 90.054 173.4763
530.000000 90.020 174.0361
538.000000 89.991 174.5813
545.000000 89.967 175.0634
552.000000 89.946 175.5506
560.000000 89.927 176.1061
570.000000 89.906 176.7804
580.000000 89.885 177.4700
590.000000 89.865 178.1625
600.000000 89.847 178.8318
608.000000 89.830 179.3691
615.000000 89.816 179.8550
622.000000 89.803 -179.6459
630.000000 89.788 -179.0860
640.000000 89.768 -178.4142
650.000000 89.750 -177.7266
660.000000 89.737 -177.0430
670.000000 89.728 -176.3815
680.000000 89.721 -175.7047
690.000000 89.716 -175.0209
700.000000 89.719 -174.3507
710.000000 89.730 -173.6946
720.000000 89.737 -173.0275
730.000000 89.731 -172.3330
740.000000 89.723 -171.6342
750.000000 89.721 -170.9393
762.000000 89.721 -170.0748
775.000000 89.722 -169.0564
788.000000 89.738 -167.9550
800.000000 89.780 -166.9368
812.000000 89.843 -166.0108
825.000000 89.916 -165.1725
838.000000 89.979 -164.4526
850.000000 90.027 -163.8007
862.000000 90.072 -163.1365
875.000000 90.123 -162.4260
885.000000 90.161 -161.8811
900.000000 90.225 -161.0629
912.000000 90.284 -160.4138
925.000000 90.352 -159.7381
938.000000 90.417 -159.0753
950.000000 90.477 -158.4769
962.000000 90.540 -157.8990
975.000000 90.615 -157.2816
988.000000 90.697 -156.6806
1000.000000 90.769 -156.1539
1015.000000 90.848 -155.5659
1030.000000 90.930 -155.0315
1044.000000 91.014 -154.5522
1060.000000 91.113 -154.0267
1075.000000 91.205 -153.5654
1090.000000 91.300 -153.1498
1106.000000 91.410 -152.7393
1120.000000 91.508 -152.4077
1138.000000 91.631 -152.0266
1150.000000 91.711 -151.7896
1172.000000 91.860 -151.3876
1180.000000 91.913 -151.2496
1206.000000 92.084 -150.8482
1220.000000 92.178 -150.6661
1241.000000 92.318 -150.4135
1250.000000 92.378 -150.3069
1265.000000 92.475 -150.1415
1280.000000 92.570 -149.9862
1315.000000 92.781 -149.6650
1320.000000 92.810 -149.6261
1340.000000 92.918 -149.4768
1360.000000 93.004 -149.3275
1380.000000 93.085 -149.1874
1400.000000 93.178 -149.0656
1430.000000 93.331 -148.9079
1450.000000 93.439 -148.8275
1475.000000 93.569 -148.7401
1500.000000 93.691 -148.6707
1525.000000 93.805 -148.6212
1550.000000 93.909 -148.5925
1575.000000 94.009 -148.5802
1600.000000 94.105 -148.5956
1625.000000 94.197 -148.6366
1650.000000 94.287 -148.6830
1675.000000 94.379 -148.7450
1700.000000 94.469 -148.8312
1725.000000 94.553 -148.9223
1750.000000 94.634 -149.0243
1775.000000 94.712 -149.1304
1800.000000 94.787 -149.2411
1825.000000 94.859 -149.3648
1850.000000 94.928 -149.4966
1875.000000 94.993 -149.6291
1900.000000 95.054 -149.7680
1925.000000 95.112 -149.9117
1950.000000 95.167 -150.0598
1975.000000 95.222 -150.2054
2000.000000 95.274 -150.3535
2030.000000 95.324 -150.5427
2060.000000 95.376 -150.7091
2090.000000 95.433 -150.8536
2120.000000 95.495 -151.0122
2140.000000 95.537 -151.1427
2180.000000 95.619 -151.4690
2200.000000 95.656 -151.6596
2240.000000 95.722 -152.0625
2270.000000 95.762 -152.3731
2300.000000 95.795 -152.6935
2330.000000 95.824 -153.0210
2360.000000 95.848 -153.3455
2400.000000 95.869 -153.7520
2430.000000 95.878 -154.0343
2470.000000 95.884 -154.3959
2500.000000 95.884 -154.6500
2540.000000 95.879 -154.9702
2580.000000 95.869 -155.2624
2620.000000 95.852 -155.5216
2650.000000 95.836 -155.6988
2690.000000 95.812 -155.8960
2720.000000 95.792 -156.0179
2760.000000 95.760 -156.1683
2800.000000 95.725 -156.3184
2850.000000 95.672 -156.4889
2900.000000 95.608 -156.5948
2950.000000 95.529 -156.5832
3000.000000 95.443 -156.3854
3040.000000 95.377 -156.0922
3070.000000 95.335 -155.7767
3110.000000 95.299 -155.2240
3150.000000 95.295 -154.5717
3200.000000 95.343 -153.7696
3250.000000 95.444 -153.1859
3300.000000 95.574 -152.9725
3350.000000 95.702 -153.1786
3400.000000 95.802 -153.7160
3450.000000 95.862 -154.4107
3500.000000 95.892 -155.1155
3550.000000 95.899 -155.7613
3600.000000 95.891 -156.3440
3650.000000 95.872 -156.8963
3700.000000 95.844 -157.4393
3750.000000 95.806 -157.9633
3820.000000 95.734 -158.6547
3870.000000 95.671 -159.1221
3950.000000 95.551 -159.8101
4000.000000 95.464 -160.2059
4060.000000 95.351 -160.6498
4120.000000 95.226 -161.0520
4180.000000 95.091 -161.4178
4250.000000 94.923 -161.7947
4310.000000 94.765 -162.0656
4370.000000 94.591 -162.2742
4440.000000 94.370 -162.4361
4500.000000 94.169 -162.5092
4550.000000 93.997 -162.5202
4620.000000 93.749 -162.4469
4680.000000 93.532 -162.2990
4750.000000 93.274 -162.0220
4820.000000 93.011 -161.6371
4870.000000 92.819 -161.2911
4940.000000 92.542 -160.7014
5000.000000 92.302 -160.0794
5080.000000 91.989 -159.0641
5150.000000 91.720 -158.0517
5220.000000 91.450 -156.9309
5300.000000 91.144 -155.4131
5380.000000 90.868 -153.6812
5450.000000 90.655 -152.1448
5520.000000 90.455 -150.5809
5600.000000 90.236 -148.7033
5700.000000 89.981 -146.1748
5800.000000 89.756 -143.4628
5900.000000 89.567 -140.6083
6000.000000 89.420 -137.6446
6080.000000 89.334 -135.2061
6150.000000 89.283 -133.0319
6220.000000 89.255 -130.8405
6300.000000 89.249 -128.3359
6400.000000 89.279 -125.2078
6500.000000 89.353 -122.0903
6600.000000 89.475 -118.9939
6700.000000 89.648 -115.9389
6800.000000 89.881 -112.9649
6900.000000 90.199 -110.1190
7000.000000 90.609 -107.4678
7100.000000 91.104 -105.0991
7200.000000 91.685 -103.1152
7300.000000 92.344 -101.6577
7400.000000 93.079 -100.9177
7500.000000 93.884 -101.1268
7620.000000 94.924 -103.0452
7750.000000 96.017 -107.7696
7880.000000 96.795 -115.6132
8000.000000 97.051 -125.0820
8120.000000 96.765 -135.0700
8250.000000 95.888 -144.2529
8380.000000 94.628 -150.3671
8500.000000 93.334 -153.2524
8620.000000 92.047 -154.0506
8750.000000 90.735 -153.2488
8850.000000 89.805 -151.7961
9000.000000 88.549 -148.6209
9120.000000 87.654 -145.4336
9250.000000 86.784 -141.4985
9380.000000 86.009 -137.1823
9500.000000 85.374 -132.9338
9620.000000 84.814 -128.4877
9750.000000 84.288 -123.5034
9880.000000 83.846 -118.3765
10000.000000 83.506 -113.5466
10150.000000 83.172 -107.4247
10300.000000 82.940 -101.2630
10440.000000 82.817 -95.5604
10600.000000 82.782 -89.2069
10750.000000 82.842 -83.4801
10900.000000 82.987 -78.0489
11060.000000 83.230 -72.6425
11200.000000 83.515 -68.2935
11380.000000 83.980 -63.3727
11500.000000 84.344 -60.6210
11720.000000 85.084 -56.9233
11800.000000 85.362 -56.0761
12060.000000 86.189 -55.4289
12200.000000 86.508 -56.4153
12410.000000 86.699 -59.1356
12500.000000 86.656 -60.4841
12650.000000 86.416 -62.5157
12800.000000 85.989 -63.8183
13150.000000 84.569 -62.4141
13200.000000 84.350 -61.6742
13400.000000 83.507 -57.4643
13600.000000 82.799 -51.4424
13800.000000 82.336 -43.9414
14000.000000 82.219 -35.4685
14300.000000 82.906 -22.7809
14500.000000 83.955 -17.1190
14750.000000 84.947 -17.4394
15000.000000 84.567 -12.4928
15250.000000 86.246 2.5773
15500.000000 89.156 4.4092
15750.000000 91.329 -5.8409
16000.000000 92.289 -22.3543
16250.000000 91.959 -38.2782
16500.000000 90.808 -48.4376
16750.000000 89.537 -53.0012
17000.000000 88.611 -54.9482
17250.000000 88.089 -57.4203
17500.000000 87.675 -62.6788
17750.000000 86.866 -70.5137
18000.000000 85.298 -77.1063
18250.000000 83.037 -77.8055
18500.000000 80.590 -70.9879
18750.000000 78.777 -58.7868
19000.000000 78.253 -45.9302
19250.000000 78.711 -37.2996
19500.000000 79.279 -34.7147
19750.000000 79.444 -36.1152
20000.000000 79.153 -38.4908
20300.000000 78.584 -41.6155
20600.000000 77.984 -47.3391
20900.000000 76.868 -56.1892
21200.000000 74.800 -63.2750
21400.000000 72.965 -64.5880
21800.000000 69.007 -61.9426
22000.000000 67.178 -71.0471
22400.000000 63.692 -82.2109
22700.000000 60.055 -70.7271
23000.000000 54.322 -55.8701
23300.000000 47.334 112.6211
23600.000000 43.022 -148.0938
24000.000000 43.101 133.5469
