* Measurement data measured by REW V5.20.13
* Source: Headset (2- DS by VECLAN.COM), MICROPHONE (Master Volume), L, volume: 1.000
* Format: 512k Log Swept Sine, 1 sweep at -12.0 dBFS with no timing reference
* Dated: Mar 15, 2023 2:05:23 PM
* REW Settings:
*  C-weighting compensation: Off
*  Target level: 75.0 dB
* Note: ; 
* Measurement: Quarks DSP R
* Smoothing: 1/24 octave
* Frequency Step: 1/48 octave
* Start Frequency: 1.000 Hz
*
* Freq(Hz) SPL(dB) Phase(degrees)
1.000000 66.165 -148.0202
1.015000 66.161 -150.9370
1.030000 66.159 -153.8166
1.044000 66.160 -156.4643
1.060000 66.164 -159.4354
1.075000 66.171 -162.1601
1.090000 66.182 -164.8188
1.106000 66.197 -167.5776
1.120000 66.211 -169.9444
1.138000 66.232 -172.9331
1.150000 66.246 -174.8945
1.172000 66.276 -178.4324
1.180000 66.287 -179.7021
1.206000 66.328 176.2243
1.220000 66.353 174.0598
1.241000 66.393 170.8428
1.250000 66.411 169.4731
1.265000 66.444 167.1992
1.280000 66.479 164.9335
1.315000 66.572 159.6585
1.320000 66.586 158.9043
1.340000 66.648 155.8809
1.360000 66.714 152.8401
1.380000 66.787 149.7737
1.400000 66.866 146.6730
1.430000 66.996 141.9394
1.450000 67.092 138.7161
1.475000 67.221 134.5944
1.500000 67.361 130.3502
1.525000 67.509 125.9996
1.550000 67.666 121.5648
1.575000 67.832 117.0684
1.600000 68.007 112.5325
1.625000 68.190 107.9795
1.650000 68.382 103.4317
1.675000 68.583 98.9116
1.700000 68.792 94.4412
1.725000 69.009 90.0432
1.750000 69.235 85.7397
1.775000 69.469 81.5531
1.800000 69.710 77.5058
1.825000 69.960 73.6200
1.850000 70.220 69.8877
1.875000 70.495 66.2465
1.900000 70.785 62.6915
1.925000 71.087 59.2209
1.950000 71.400 55.8327
1.975000 71.721 52.5250
2.000000 72.049 49.2958
2.030000 72.448 45.5219
2.060000 72.851 41.8551
2.090000 73.254 38.2920
2.120000 73.654 34.8293
2.140000 73.918 32.5749
2.180000 74.433 28.1919
2.200000 74.682 26.0613
2.240000 75.179 21.9637
2.270000 75.553 19.0380
2.300000 75.927 16.2288
2.330000 76.300 13.5273
2.360000 76.671 10.9247
2.400000 77.163 7.5933
2.430000 77.527 5.1873
2.470000 78.005 2.0861
2.500000 78.357 -0.1711
2.540000 78.815 -3.1062
2.580000 79.260 -5.9656
2.620000 79.694 -8.6871
2.650000 80.013 -10.6346
2.690000 80.431 -13.1178
2.720000 80.738 -14.9033
2.760000 81.140 -17.1929
2.800000 81.534 -19.3918
2.850000 82.015 -22.0355
2.900000 82.485 -24.5889
2.950000 82.943 -27.0693
3.000000 83.388 -29.4053
3.040000 83.734 -31.1707
3.070000 83.988 -32.4432
3.110000 84.320 -34.0824
3.150000 84.646 -35.6680
3.200000 85.044 -37.5953
3.250000 85.432 -39.4866
3.300000 85.813 -41.3679
3.350000 86.185 -43.2209
3.400000 86.546 -45.0218
3.450000 86.897 -46.7721
3.500000 87.239 -48.4735
3.550000 87.573 -50.1279
3.600000 87.898 -51.7368
3.650000 88.216 -53.3021
3.700000 88.527 -54.8170
3.750000 88.829 -56.2679
3.820000 89.238 -58.2119
3.870000 89.520 -59.5536
3.950000 89.956 -61.6506
4.000000 90.218 -62.9480
4.060000 90.524 -64.5065
4.120000 90.818 -66.0530
4.180000 91.100 -67.5778
4.250000 91.416 -69.3188
4.310000 91.676 -70.7697
4.370000 91.926 -72.1744
4.440000 92.204 -73.7485
4.500000 92.430 -75.0499
4.550000 92.610 -76.1023
4.620000 92.851 -77.5284
4.680000 93.048 -78.7087
4.750000 93.267 -80.0391
4.820000 93.475 -81.3239
4.870000 93.614 -82.2147
4.940000 93.799 -83.4179
5.000000 93.949 -84.4027
5.080000 94.141 -85.6394
5.150000 94.303 -86.6414
5.220000 94.454 -87.5682
5.300000 94.617 -88.5435
5.380000 94.772 -89.4372
5.450000 94.905 -90.1591
5.520000 95.038 -90.8283
5.600000 95.185 -91.5075
5.700000 95.363 -92.2492
5.800000 95.541 -92.9136
5.900000 95.724 -93.5358
6.000000 95.910 -94.0759
6.080000 96.060 -94.4689
6.150000 96.192 -94.8073
6.220000 96.325 -95.1597
6.300000 96.480 -95.5725
6.400000 96.676 -96.0801
6.500000 96.872 -96.6086
6.600000 97.061 -97.1907
6.700000 97.247 -97.8329
6.800000 97.430 -98.5201
6.900000 97.604 -99.2440
7.000000 97.764 -100.0001
7.100000 97.915 -100.8032
7.200000 98.054 -101.6351
7.300000 98.181 -102.4701
7.400000 98.294 -103.3008
7.500000 98.394 -104.1443
7.620000 98.498 -105.1388
7.750000 98.595 -106.1515
7.880000 98.673 -107.1120
8.000000 98.734 -107.9464
8.120000 98.790 -108.7168
8.250000 98.841 -109.4783
8.380000 98.889 -110.1884
8.500000 98.934 -110.8104
8.620000 98.978 -111.3881
8.750000 99.026 -112.0016
8.850000 99.065 -112.4854
9.000000 99.125 -113.2079
9.120000 99.173 -113.8055
9.250000 99.224 -114.4931
9.380000 99.275 -115.2125
9.500000 99.317 -115.8998
9.620000 99.351 -116.6117
9.750000 99.382 -117.4103
9.880000 99.401 -118.2148
10.000000 99.405 -118.9576
10.150000 99.396 -119.8895
10.300000 99.379 -120.7999
10.440000 99.351 -121.6284
10.600000 99.317 -122.5552
10.750000 99.289 -123.4017
10.900000 99.262 -124.2312
11.060000 99.238 -125.1147
11.200000 99.220 -125.8846
11.380000 99.201 -126.8798
11.500000 99.189 -127.5522
11.720000 99.169 -128.7851
11.800000 99.162 -129.2312
12.060000 99.142 -130.6636
12.200000 99.132 -131.3995
12.410000 99.120 -132.4559
12.500000 99.116 -132.8828
12.650000 99.112 -133.5594
12.800000 99.111 -134.2020
13.150000 99.133 -135.5834
13.200000 99.139 -135.7761
13.400000 99.171 -136.5330
13.600000 99.209 -137.2983
13.800000 99.254 -138.0860
14.000000 99.296 -138.8881
14.300000 99.351 -140.1042
14.500000 99.377 -140.8905
14.750000 99.401 -141.8033
15.000000 99.417 -142.6194
15.250000 99.434 -143.3233
15.500000 99.455 -143.9441
15.750000 99.481 -144.5048
16.000000 99.511 -145.0502
16.250000 99.540 -145.6079
16.500000 99.567 -146.1844
16.750000 99.587 -146.7793
17.000000 99.598 -147.3665
17.250000 99.603 -147.9329
17.500000 99.601 -148.4614
17.750000 99.599 -148.9548
18.000000 99.597 -149.4272
18.250000 99.597 -149.8952
18.500000 99.601 -150.3882
18.750000 99.605 -150.9137
19.000000 99.608 -151.4781
19.250000 99.607 -152.0684
19.500000 99.601 -152.6637
19.750000 99.591 -153.2476
20.000000 99.579 -153.7970
20.299999 99.567 -154.4093
20.600000 99.563 -154.9818
20.900000 99.568 -155.5416
21.200001 99.584 -156.1241
21.400000 99.597 -156.5369
21.799999 99.623 -157.4155
22.000000 99.635 -157.8710
22.400000 99.651 -158.7766
22.700001 99.658 -159.4240
23.000000 99.663 -160.0323
23.299999 99.669 -160.6093
23.600000 99.674 -161.1635
24.000000 99.679 -161.8726
24.299999 99.680 -162.3741
24.700001 99.679 -162.9850
25.000000 99.679 -163.3999
25.400000 99.685 -163.9238
25.799999 99.697 -164.4722
26.200001 99.707 -165.0844
26.500000 99.709 -165.5751
26.900000 99.701 -166.2266
27.200001 99.692 -166.6809
27.600000 99.681 -167.2318
28.000000 99.682 -167.7674
28.500000 99.697 -168.5275
29.000000 99.707 -169.4349
29.500000 99.698 -170.3936
30.000000 99.672 -171.2615
30.400000 99.652 -171.8647
30.700001 99.641 -172.2856
31.100000 99.631 -172.8433
31.500000 99.621 -173.4081
32.000000 99.602 -174.0894
32.500000 99.579 -174.6859
33.000000 99.562 -175.2006
33.500000 99.554 -175.6975
34.000000 99.550 -176.2251
34.500000 99.541 -176.7620
35.000000 99.528 -177.2590
35.500000 99.516 -177.7026
36.000000 99.511 -178.1261
36.500000 99.508 -178.5579
37.000000 99.503 -178.9842
37.500000 99.496 -179.3708
38.200001 99.489 -179.8283
38.700001 99.489 179.8788
39.500000 99.488 179.4555
40.000000 99.486 179.2452
40.599998 99.485 179.0423
41.200001 99.485 178.8472
41.799999 99.477 178.6546
42.500000 99.457 178.4958
43.099998 99.442 178.4294
43.700001 99.432 178.3628
44.400002 99.419 178.2347
45.000000 99.400 178.1202
45.500000 99.383 178.0552
46.200001 99.368 177.9827
46.799999 99.363 177.8701
47.500000 99.352 177.6568
48.200001 99.326 177.4541
48.700001 99.303 177.3738
49.400002 99.277 177.3361
50.000000 99.263 177.3007
50.799999 99.242 177.2078
51.500000 99.214 177.1502
52.200001 99.185 177.1599
53.000000 99.165 177.1808
53.799999 99.149 177.0898
54.500000 99.119 176.9504
55.200001 99.075 176.8962
56.000000 99.034 176.9771
57.000000 99.006 177.0679
58.000000 98.973 177.1157
59.000000 98.935 177.2644
60.000000 98.903 177.4750
60.799999 98.879 177.6417
61.500000 98.854 177.7629
62.200001 98.823 177.8714
63.000000 98.780 178.0150
64.000000 98.726 178.2195
65.000000 98.677 178.3950
66.000000 98.631 178.5446
67.000000 98.590 178.7028
68.000000 98.554 178.8597
69.000000 98.511 179.0529
70.000000 98.461 179.3537
71.000000 98.407 179.7493
72.000000 98.351 -179.8016
73.000000 98.298 -179.3882
74.000000 98.235 -179.1255
75.000000 98.145 -178.8490
76.199997 98.061 -178.3364
77.500000 98.016 -177.9510
78.800003 97.962 -177.5919
80.000000 97.910 -177.0073
81.199997 97.875 -176.1804
82.500000 97.875 -175.4174
83.800003 97.811 -175.1848
85.000000 97.667 -174.7858
86.199997 97.532 -174.1349
87.500000 97.420 -173.4474
88.500000 97.352 -172.9667
90.000000 97.267 -172.2330
91.199997 97.208 -171.6129
92.500000 97.139 -170.8947
93.800003 97.060 -170.1217
95.000000 96.977 -169.3763
96.199997 96.889 -168.6216
97.500000 96.794 -167.8115
98.800003 96.700 -167.0019
100.000000 96.617 -166.2213
101.500000 96.519 -165.1826
103.000000 96.420 -164.0870
104.400002 96.322 -163.0362
106.000000 96.197 -161.8254
107.500000 96.076 -160.7106
109.000000 95.958 -159.6143
110.599998 95.843 -158.3929
112.000000 95.750 -157.2336
113.800003 95.623 -155.6144
115.000000 95.523 -154.5062
117.199997 95.317 -152.6816
118.000000 95.244 -152.1777
120.599998 95.005 -151.3470
122.000000 94.807 -150.5657
124.099998 94.642 -147.5011
125.000000 94.646 -146.1566
126.500000 94.632 -144.2062
128.000000 94.556 -142.3948
131.500000 94.272 -138.5272
132.000000 94.233 -138.0064
134.000000 94.092 -135.8862
136.000000 93.960 -133.6163
138.000000 93.823 -131.2103
140.000000 93.686 -128.8238
143.000000 93.490 -125.2667
145.000000 93.367 -122.7921
147.500000 93.210 -119.6156
150.000000 93.053 -116.4299
152.500000 92.901 -113.2056
155.000000 92.763 -109.8262
157.500000 92.633 -106.3896
160.000000 92.506 -102.9358
162.500000 92.386 -99.4377
165.000000 92.276 -95.8967
167.500000 92.170 -92.3196
170.000000 92.068 -88.6932
172.500000 91.971 -85.0216
175.000000 91.881 -81.3267
177.500000 91.798 -77.6150
180.000000 91.723 -73.8843
182.500000 91.651 -70.1492
185.000000 91.585 -66.3995
187.500000 91.528 -62.6171
190.000000 91.475 -58.7980
192.500000 91.425 -54.9567
195.000000 91.387 -51.1467
197.500000 91.358 -47.4052
200.000000 91.331 -43.6523
203.000000 91.301 -39.0986
206.000000 91.275 -34.5469
209.000000 91.255 -30.0096
212.000000 91.240 -25.4534
214.000000 91.233 -22.4158
218.000000 91.220 -16.3557
220.000000 91.213 -13.3136
224.000000 91.209 -7.2659
227.000000 91.209 -2.7970
230.000000 91.211 1.6772
233.000000 91.214 6.1603
236.000000 91.216 10.6501
240.000000 91.225 16.6262
243.000000 91.233 21.1074
247.000000 91.236 27.0903
250.000000 91.238 31.5812
254.000000 91.256 37.5746
258.000000 91.277 43.5539
262.000000 91.294 49.5367
265.000000 91.308 54.0362
269.000000 91.326 60.0474
272.000000 91.337 64.5634
276.000000 91.350 70.6027
280.000000 91.363 76.6399
285.000000 91.384 84.1604
290.000000 91.404 91.7290
295.000000 91.420 99.3085
300.000000 91.435 106.8678
304.000000 91.446 112.9385
307.000000 91.456 117.5167
311.000000 91.470 123.6393
315.000000 91.484 129.7683
320.000000 91.502 137.4590
325.000000 91.513 145.1853
330.000000 91.524 152.9658
335.000000 91.536 160.7911
340.000000 91.542 168.6138
345.000000 91.541 176.4953
350.000000 91.536 -175.5838
355.000000 91.538 -167.6397
360.000000 91.540 -159.6363
365.000000 91.539 -151.5998
370.000000 91.538 -143.5498
375.000000 91.538 -135.4902
382.000000 91.532 -124.1696
387.000000 91.523 -116.0532
395.000000 91.506 -103.0055
400.000000 91.497 -94.8220
406.000000 91.489 -84.9821
412.000000 91.478 -75.0760
418.000000 91.465 -65.1350
425.000000 91.444 -53.5161
431.000000 91.424 -43.5125
437.000000 91.404 -33.4510
444.000000 91.381 -21.6361
450.000000 91.364 -11.4678
455.000000 91.352 -2.9642
462.000000 91.335 8.9808
468.000000 91.316 19.2629
475.000000 91.295 31.3473
482.000000 91.280 43.4951
487.000000 91.270 52.2033
494.000000 91.254 64.4481
500.000000 91.241 74.9851
508.000000 91.222 89.0991
515.000000 91.204 101.5058
522.000000 91.189 113.9478
530.000000 91.173 128.2134
538.000000 91.153 142.5676
545.000000 91.134 155.1845
552.000000 91.119 167.8381
560.000000 91.106 -177.6179
570.000000 91.092 -159.2961
580.000000 91.076 -140.8820
590.000000 91.064 -122.3792
600.000000 91.052 -103.7995
608.000000 91.040 -88.8815
615.000000 91.028 -75.7801
622.000000 91.014 -62.6284
630.000000 91.001 -47.5409
640.000000 90.988 -28.5971
650.000000 90.976 -9.5583
660.000000 90.967 9.5802
670.000000 90.961 28.8148
680.000000 90.958 48.1215
690.000000 90.959 67.4961
700.000000 90.962 86.9404
710.000000 90.964 106.4510
720.000000 90.968 126.0372
730.000000 90.977 145.7020
740.000000 90.994 165.4390
750.000000 91.014 -174.7603
762.000000 91.033 -150.9300
775.000000 91.050 -125.0376
788.000000 91.072 -99.0322
800.000000 91.103 -74.9093
812.000000 91.141 -50.6815
825.000000 91.183 -24.3348
838.000000 91.227 2.0839
850.000000 91.274 26.5211
862.000000 91.326 50.9899
875.000000 91.383 77.5546
885.000000 91.428 98.0439
900.000000 91.501 128.8594
912.000000 91.568 153.5948
925.000000 91.648 -179.5055
938.000000 91.733 -152.5134
950.000000 91.813 -127.5603
962.000000 91.892 -102.5854
975.000000 91.973 -75.5048
988.000000 92.055 -48.3900
1000.000000 92.135 -23.3110
1015.000000 92.242 8.1042
1030.000000 92.351 39.5876
1044.000000 92.449 69.0148
1060.000000 92.559 102.6707
1075.000000 92.664 134.2771
1090.000000 92.773 165.9647
1106.000000 92.897 -160.1166
1120.000000 93.010 -130.3173
1138.000000 93.158 -91.8391
1150.000000 93.257 -66.1073
1172.000000 93.431 -18.8438
1180.000000 93.490 -1.6406
1206.000000 93.673 54.3486
1220.000000 93.769 84.5870
1241.000000 93.919 130.1140
1250.000000 93.985 149.6877
1265.000000 94.093 -177.6289
1280.000000 94.196 -144.8928
1315.000000 94.414 -68.3699
1320.000000 94.443 -57.4170
1340.000000 94.554 -13.5135
1360.000000 94.646 30.5674
1380.000000 94.737 74.8311
1400.000000 94.842 119.2725
1430.000000 95.006 -173.7571
1450.000000 95.116 -128.9246
1475.000000 95.250 -72.7251
1500.000000 95.379 -16.3821
1525.000000 95.506 40.1135
1550.000000 95.631 96.7754
1575.000000 95.753 153.6138
1600.000000 95.880 -149.3967
1625.000000 96.006 -92.3186
1650.000000 96.126 -35.1450
1675.000000 96.247 22.1560
1700.000000 96.376 79.6436
1725.000000 96.506 137.3428
1750.000000 96.637 -164.7622
1775.000000 96.773 -106.6731
1800.000000 96.909 -48.3914
1825.000000 97.047 10.0798
1850.000000 97.191 68.7229
1875.000000 97.335 127.5100
1900.000000 97.476 -173.5857
1925.000000 97.616 -114.5811
1950.000000 97.757 -55.4473
1975.000000 97.900 3.8147
2000.000000 98.043 63.1968
2030.000000 98.215 134.6116
2060.000000 98.388 -153.8438
2090.000000 98.559 -82.2024
2120.000000 98.724 -10.4746
2140.000000 98.834 37.4087
2180.000000 99.059 133.3638
2200.000000 99.177 -178.5559
2240.000000 99.656 -82.6536
2270.000000 100.327 -16.9224
2300.000000 100.513 35.0957
2330.000000 100.126 72.5161
2360.000000 99.901 101.6953
2400.000000 99.969 138.4067
2430.000000 100.041 165.5615
2470.000000 100.111 -158.7954
2500.000000 100.141 -132.4521
2540.000000 100.156 -97.6973
2580.000000 100.152 -63.3115
2620.000000 100.121 -29.3691
2650.000000 100.083 -4.2588
2690.000000 100.025 28.7896
2720.000000 99.981 53.3066
2760.000000 99.929 85.7334
2800.000000 99.897 117.9302
2850.000000 99.892 157.7769
2900.000000 99.926 -163.0635
2950.000000 100.015 -124.7202
3000.000000 100.160 -87.3188
3040.000000 100.304 -58.1816
3070.000000 100.423 -36.8374
3110.000000 100.582 -9.0781
3150.000000 100.728 17.9209
3200.000000 100.885 50.7168
3250.000000 100.989 82.4805
3300.000000 101.021 113.2632
3350.000000 100.997 143.2920
3400.000000 100.935 172.7607
3450.000000 100.853 -158.2354
3500.000000 100.783 -129.7305
3550.000000 100.709 -101.9434
3600.000000 100.632 -74.9321
3650.000000 100.568 -48.5825
3700.000000 100.504 -22.8486
3750.000000 100.444 2.3169
3820.000000 100.370 36.6851
3870.000000 100.321 60.6338
3950.000000 100.261 97.8091
4000.000000 100.238 120.1396
4060.000000 100.226 145.8008
4120.000000 100.226 170.2202
4180.000000 100.249 -166.4058
4250.000000 100.279 -140.4326
4310.000000 100.275 -119.4302
4370.000000 100.229 -99.5181
4440.000000 100.118 -77.3867
4500.000000 99.969 -59.0854
4550.000000 99.814 -44.1582
4620.000000 99.556 -23.6948
4680.000000 99.316 -6.5176
4750.000000 99.066 13.1230
4820.000000 98.881 32.1094
4870.000000 98.795 45.1318
4940.000000 98.738 62.4658
5000.000000 98.730 76.3667
5080.000000 98.766 93.4717
5150.000000 98.826 107.1890
5220.000000 98.907 119.8354
5300.000000 99.009 132.9443
5380.000000 99.108 144.5293
5450.000000 99.181 153.4033
5520.000000 99.226 161.1548
5600.000000 99.242 168.8569
5700.000000 99.241 177.1797
5800.000000 99.241 -175.7974
5900.000000 99.241 -170.4551
6000.000000 99.247 -166.9956
6080.000000 99.263 -165.4102
6150.000000 99.277 -164.8921
6220.000000 99.280 -165.3140
6300.000000 99.257 -167.0669
6400.000000 99.192 -171.0464
6500.000000 99.091 -176.6450
6600.000000 98.975 176.5122
6700.000000 98.850 168.5469
6800.000000 98.728 159.3770
6900.000000 98.619 148.8081
7000.000000 98.534 136.8765
7100.000000 98.479 123.7329
7200.000000 98.449 109.2974
7300.000000 98.464 93.5122
7400.000000 98.521 76.1714
7500.000000 98.610 57.0366
7620.000000 98.761 31.5273
7750.000000 98.909 0.3940
7880.000000 98.901 -33.8491
8000.000000 98.752 -67.2705
8120.000000 98.470 -102.1919
8250.000000 98.024 -141.6416
8380.000000 97.453 177.4092
8500.000000 96.846 138.5029
8620.000000 96.191 98.6226
8750.000000 95.447 53.8809
8850.000000 94.855 18.1035
9000.000000 93.980 -37.3311
9120.000000 93.312 -82.7456
9250.000000 92.632 -133.0264
9380.000000 91.983 175.1353
9500.000000 91.415 125.9160
9620.000000 90.887 75.4771
9750.000000 90.350 19.2031
9880.000000 89.845 -38.8149
10000.000000 89.404 -93.6045
10150.000000 88.896 -163.4644
10300.000000 88.418 124.6978
10440.000000 87.989 55.5776
10600.000000 87.533 -25.6108
10750.000000 87.130 -104.0771
10900.000000 86.740 175.0352
11060.000000 86.351 86.5000
11200.000000 86.031 7.2705
11380.000000 85.637 -97.1904
11500.000000 85.379 -168.5090
11720.000000 84.913 57.7661
11800.000000 84.740 8.4304
12060.000000 83.960 -147.1270
12200.000000 83.382 149.8188
12410.000000 83.186 114.3853
12500.000000 83.169 115.1113
12650.000000 82.986 123.2456
12800.000000 82.718 133.5498
13150.000000 82.096 157.4568
13200.000000 82.016 160.6985
13400.000000 81.725 173.0115
13600.000000 81.508 -175.4075
13800.000000 81.411 -164.0806
14000.000000 81.443 -153.4714
14300.000000 81.705 -139.7112
14500.000000 82.051 -131.2786
14750.000000 82.663 -121.5471
15000.000000 83.474 -113.0845
15250.000000 84.549 -106.4944
15500.000000 85.968 -103.6560
15750.000000 87.643 -106.3574
16000.000000 88.986 -117.0488
16250.000000 89.178 -134.8262
16500.000000 87.874 -152.1665
16750.000000 85.487 -163.7332
17000.000000 82.776 -169.8403
17250.000000 80.266 -172.5957
17500.000000 78.120 -173.9021
17750.000000 76.317 -175.0625
18000.000000 74.794 -176.3677
18250.000000 73.487 -177.8057
18500.000000 72.335 -179.7153
18750.000000 71.341 178.2166
19000.000000 70.486 176.4124
19250.000000 69.712 174.6143
19500.000000 68.969 172.2563
19750.000000 68.247 169.4043
20000.000000 67.495 166.5444
20300.000000 66.574 162.6133
20600.000000 65.752 157.2214
20900.000000 64.987 150.2358
21200.000000 64.162 140.5713
21400.000000 63.472 131.9651
21800.000000 61.495 114.8870
22000.000000 60.647 111.2217
