* Measurement data measured by REW V5.31
* Source: Headset (DS by VECLAN.COM), MICROPHONE (Master Volume), L, volume: 0.720. Timing signal peak level -14.8 dBFS, measurement signal peak level -13.6 dBFS
* Format: 2M Log Swept Sine, 1 sweep at -12.0 dBFS using an acoustic timing reference
* Dated: Apr 27, 2024 1:14:17 PM
* REW Settings:
*  C-weighting compensation: Off
*  Target level: 85.0 dB
* Note: ; Delay -0.0708 ms (-24 mm, -0.96 in) using estimated IR delay relative to Acoustic reference played from HEADPHONE L with no timing offset
* Measurement: Gold Sancai L
* Smoothing: 1/24 octave
* Frequency Step: 1/48 octave
* Start Frequency: 1.000 Hz
*
* Freq(Hz), SPL(dB), Phase(degrees)
1.000000, 73.207, -40.1106
1.015000, 73.457, -41.0806
1.030000, 73.707, -42.0367
1.044000, 73.939, -42.9179
1.060000, 74.202, -43.9130
1.075000, 74.447, -44.8353
1.090000, 74.689, -45.7469
1.106000, 74.946, -46.6980
1.120000, 75.176, -47.4959
1.138000, 75.478, -48.4646
1.150000, 75.685, -49.0756
1.172000, 76.071, -50.1352
1.180000, 76.213, -50.5070
1.206000, 76.682, -51.6475
1.220000, 76.936, -52.2224
1.241000, 77.319, -53.0390
1.250000, 77.483, -53.3735
1.265000, 77.755, -53.9122
1.280000, 78.025, -54.4291
1.315000, 78.643, -55.5618
1.320000, 78.729, -55.7162
1.340000, 79.068, -56.3174
1.360000, 79.395, -56.8940
1.380000, 79.709, -57.4882
1.400000, 80.006, -58.0794
1.430000, 80.419, -58.9383
1.450000, 80.668, -59.4946
1.475000, 80.949, -60.1631
1.500000, 81.195, -60.7770
1.525000, 81.410, -61.3293
1.550000, 81.599, -61.8271
1.575000, 81.764, -62.2999
1.600000, 81.909, -62.7722
1.625000, 82.038, -63.2114
1.650000, 82.155, -63.6237
1.675000, 82.262, -64.0140
1.700000, 82.364, -64.3871
1.725000, 82.464, -64.7469
1.750000, 82.567, -65.0968
1.775000, 82.674, -65.4568
1.800000, 82.791, -65.8454
1.825000, 82.919, -66.2281
1.850000, 83.055, -66.5958
1.875000, 83.194, -66.9352
1.900000, 83.332, -67.2449
1.925000, 83.470, -67.5289
1.950000, 83.608, -67.7910
1.975000, 83.745, -68.0519
2.000000, 83.881, -68.3314
2.030000, 84.044, -68.6513
2.060000, 84.206, -68.9609
2.090000, 84.367, -69.2647
2.120000, 84.526, -69.5666
2.140000, 84.632, -69.7684
2.180000, 84.841, -70.1965
2.200000, 84.945, -70.4296
2.240000, 85.151, -70.8737
2.270000, 85.304, -71.1797
2.300000, 85.456, -71.4655
2.330000, 85.607, -71.7355
2.360000, 85.757, -71.9944
2.400000, 85.954, -72.3768
2.430000, 86.101, -72.6666
2.470000, 86.295, -73.0541
2.500000, 86.439, -73.3491
2.540000, 86.630, -73.7515
2.580000, 86.818, -74.1777
2.620000, 87.005, -74.6272
2.650000, 87.143, -74.9498
2.690000, 87.327, -75.3647
2.720000, 87.463, -75.6677
2.760000, 87.642, -76.0639
2.800000, 87.819, -76.4978
2.850000, 88.037, -77.0514
2.900000, 88.250, -77.6181
2.950000, 88.459, -78.1975
3.000000, 88.663, -78.8039
3.040000, 88.824, -79.2914
3.070000, 88.943, -79.6521
3.110000, 89.099, -80.1279
3.150000, 89.253, -80.6000
3.200000, 89.441, -81.2196
3.250000, 89.625, -81.8574
3.300000, 89.805, -82.5024
3.350000, 89.980, -83.1514
3.400000, 90.151, -83.8320
3.450000, 90.319, -84.5209
3.500000, 90.481, -85.2020
3.550000, 90.640, -85.8742
3.600000, 90.794, -86.5651
3.650000, 90.943, -87.2625
3.700000, 91.087, -87.9601
3.750000, 91.227, -88.6607
3.820000, 91.414, -89.6736
3.870000, 91.543, -90.3949
3.950000, 91.741, -91.5207
4.000000, 91.859, -92.2260
4.060000, 91.997, -93.0699
4.120000, 92.128, -93.9109
4.180000, 92.253, -94.7538
4.250000, 92.392, -95.7511
4.310000, 92.506, -96.5782
4.370000, 92.615, -97.3793
4.440000, 92.736, -98.3180
4.500000, 92.834, -99.1116
4.550000, 92.912, -99.7632
4.620000, 93.015, -100.6806
4.680000, 93.100, -101.4447
4.750000, 93.196, -102.2957
4.820000, 93.288, -103.1335
4.870000, 93.351, -103.7217
4.940000, 93.435, -104.5236
5.000000, 93.504, -105.2035
5.080000, 93.594, -106.0844
5.150000, 93.670, -106.8167
5.220000, 93.743, -107.5413
5.300000, 93.824, -108.3473
5.380000, 93.903, -109.1258
5.450000, 93.971, -109.8015
5.520000, 94.038, -110.4520
5.600000, 94.115, -111.1794
5.700000, 94.208, -112.0734
5.800000, 94.301, -112.9454
5.900000, 94.392, -113.8134
6.000000, 94.482, -114.6680
6.080000, 94.553, -115.3538
6.150000, 94.614, -115.9414
6.220000, 94.673, -116.5365
6.300000, 94.740, -117.2130
6.400000, 94.821, -118.0564
6.500000, 94.899, -118.8998
6.600000, 94.972, -119.7273
6.700000, 95.041, -120.5548
6.800000, 95.107, -121.3718
6.900000, 95.169, -122.1757
7.000000, 95.227, -122.9506
7.100000, 95.282, -123.7103
7.200000, 95.333, -124.4469
7.300000, 95.383, -125.1607
7.400000, 95.431, -125.8414
7.500000, 95.478, -126.5031
7.620000, 95.533, -127.2643
7.750000, 95.595, -128.0506
7.880000, 95.658, -128.8061
8.000000, 95.719, -129.4830
8.120000, 95.782, -130.1589
8.250000, 95.854, -130.8884
8.380000, 95.926, -131.6243
8.500000, 95.992, -132.3277
8.620000, 96.057, -133.0473
8.750000, 96.124, -133.8411
8.850000, 96.171, -134.4642
9.000000, 96.233, -135.4118
9.120000, 96.275, -136.1640
9.250000, 96.309, -136.9623
9.380000, 96.334, -137.7352
9.500000, 96.350, -138.4045
9.620000, 96.359, -139.0103
9.750000, 96.361, -139.5990
9.880000, 96.354, -140.1078
10.000000, 96.339, -140.4873
10.150000, 96.314, -140.8932
10.300000, 96.294, -141.1966
10.440000, 96.283, -141.3954
10.600000, 96.286, -141.5798
10.750000, 96.311, -141.7541
10.900000, 96.353, -141.9572
11.060000, 96.413, -142.2923
11.200000, 96.474, -142.7128
11.380000, 96.551, -143.3837
11.500000, 96.595, -143.9175
11.720000, 96.656, -145.0189
11.800000, 96.670, -145.4463
12.060000, 96.680, -146.8857
12.200000, 96.663, -147.6583
12.410000, 96.614, -148.7020
12.500000, 96.585, -149.0833
12.650000, 96.529, -149.6228
12.800000, 96.471, -150.0412
13.150000, 96.358, -150.6274
13.200000, 96.347, -150.6859
13.400000, 96.322, -150.8681
13.600000, 96.323, -151.0424
13.800000, 96.344, -151.2754
14.000000, 96.374, -151.6144
14.300000, 96.417, -152.3997
14.500000, 96.431, -153.0151
14.750000, 96.424, -153.7958
15.000000, 96.399, -154.5141
15.250000, 96.370, -155.1655
15.500000, 96.347, -155.7023
15.750000, 96.336, -156.1684
16.000000, 96.340, -156.6389
16.250000, 96.351, -157.2159
16.500000, 96.359, -157.8675
16.750000, 96.352, -158.5605
17.000000, 96.328, -159.2266
17.250000, 96.290, -159.8214
17.500000, 96.247, -160.2628
17.750000, 96.211, -160.5397
18.000000, 96.195, -160.6947
18.250000, 96.205, -160.8205
18.500000, 96.240, -160.9783
18.750000, 96.293, -161.2245
19.000000, 96.354, -161.5893
19.250000, 96.414, -162.0958
19.500000, 96.466, -162.6988
19.750000, 96.506, -163.3737
20.000000, 96.529, -164.0966
20.299999, 96.532, -165.0201
20.600000, 96.499, -165.9033
20.900000, 96.428, -166.6359
21.200001, 96.325, -167.0941
21.400000, 96.250, -167.1780
21.799999, 96.132, -166.7566
22.000000, 96.115, -166.3239
22.400000, 96.202, -165.4588
22.700001, 96.359, -165.1858
23.000000, 96.550, -165.4900
23.299999, 96.719, -166.4029
23.600000, 96.823, -167.7370
24.000000, 96.833, -169.6984
24.299999, 96.756, -170.9874
24.700001, 96.599, -172.1389
25.000000, 96.488, -172.5772
25.400000, 96.391, -172.8658
25.799999, 96.347, -173.1242
26.200001, 96.320, -173.5180
26.500000, 96.293, -173.8473
26.900000, 96.250, -174.1833
27.200001, 96.226, -174.3244
27.600000, 96.225, -174.4321
28.000000, 96.260, -174.6002
28.500000, 96.322, -175.0645
29.000000, 96.364, -175.7124
29.500000, 96.382, -176.3637
30.000000, 96.392, -176.9465
30.400000, 96.396, -177.4161
30.700001, 96.391, -177.7710
31.100000, 96.370, -178.2157
31.500000, 96.332, -178.5706
32.000000, 96.278, -178.7941
32.500000, 96.243, -178.8329
33.000000, 96.239, -178.8450
33.500000, 96.255, -179.0173
34.000000, 96.266, -179.3824
34.500000, 96.252, -179.8401
35.000000, 96.217, 179.7714
35.500000, 96.186, 179.4809
36.000000, 96.173, 179.1743
36.500000, 96.166, 178.7316
37.000000, 96.142, 178.2081
37.500000, 96.106, 177.7377
38.200001, 96.077, 177.1597
38.700001, 96.069, 176.5989
39.500000, 95.997, 175.5811
40.000000, 95.925, 175.2355
40.599998, 95.882, 175.1273
41.200001, 95.900, 174.9358
41.799999, 95.923, 174.4770
42.500000, 95.923, 173.8322
43.099998, 95.907, 173.2240
43.700001, 95.843, 172.6430
44.400002, 95.710, 172.6044
45.000000, 95.668, 173.2428
45.500000, 95.734, 173.6763
46.200001, 95.864, 173.3652
46.799999, 95.886, 172.5975
47.500000, 95.832, 171.9837
48.200001, 95.793, 171.6683
48.700001, 95.774, 171.3756
49.400002, 95.720, 170.9030
50.000000, 95.654, 170.6421
50.799999, 95.582, 170.5416
51.500000, 95.548, 170.5109
52.200001, 95.529, 170.4292
53.000000, 95.520, 170.2892
53.799999, 95.531, 169.9778
54.500000, 95.525, 169.3889
55.200001, 95.452, 168.7355
56.000000, 95.321, 168.5011
57.000000, 95.254, 168.7452
58.000000, 95.276, 168.5124
59.000000, 95.285, 167.7564
60.000000, 95.230, 166.8309
60.799999, 95.150, 166.4790
61.500000, 95.122, 166.4464
62.200001, 95.133, 166.2880
63.000000, 95.128, 165.8857
64.000000, 95.079, 165.5761
65.000000, 95.048, 165.4771
66.000000, 95.026, 165.2535
67.000000, 94.982, 164.9229
68.000000, 94.926, 164.6543
69.000000, 94.877, 164.3292
70.000000, 94.809, 163.9920
71.000000, 94.754, 163.8674
72.000000, 94.726, 163.6290
73.000000, 94.671, 163.3908
74.000000, 94.623, 163.3594
75.000000, 94.589, 163.2784
76.199997, 94.548, 163.1058
77.500000, 94.490, 162.7286
78.800003, 94.424, 162.5536
80.000000, 94.394, 162.2360
81.199997, 94.331, 162.0869
82.500000, 94.312, 162.0750
83.800003, 94.245, 161.8051
85.000000, 94.172, 161.8666
86.199997, 94.121, 161.5543
87.500000, 94.005, 161.0355
88.500000, 93.937, 160.8357
90.000000, 93.888, 160.2760
91.199997, 93.840, 159.9254
92.500000, 93.784, 159.9976
93.800003, 93.767, 160.6064
95.000000, 93.792, 160.9203
96.199997, 93.763, 160.8803
97.500000, 93.693, 160.8192
98.800003, 93.625, 160.6412
100.000000, 93.582, 160.3613
101.500000, 93.529, 159.9185
103.000000, 93.502, 159.8345
104.400002, 93.513, 159.5338
106.000000, 93.429, 158.7055
107.500000, 93.249, 158.3382
109.000000, 93.106, 158.3980
110.599998, 93.037, 158.4408
112.000000, 93.015, 158.2914
113.800003, 92.998, 158.1247
115.000000, 92.979, 158.0784
117.199997, 92.921, 158.2039
118.000000, 92.886, 158.3947
120.599998, 92.796, 158.9006
122.000000, 92.681, 158.9378
124.099998, 92.514, 159.2804
125.000000, 92.484, 159.3817
126.500000, 92.489, 159.1694
128.000000, 92.509, 158.6531
131.500000, 92.483, 157.9200
132.000000, 92.467, 157.8943
134.000000, 92.368, 157.9549
136.000000, 92.250, 158.1486
138.000000, 92.146, 158.4107
140.000000, 92.098, 158.5297
143.000000, 92.012, 158.3562
145.000000, 91.935, 158.4546
147.500000, 91.882, 158.5852
150.000000, 91.841, 158.3173
152.500000, 91.796, 158.1806
155.000000, 91.760, 158.3732
157.500000, 91.694, 158.6397
160.000000, 91.591, 158.6870
162.500000, 91.497, 158.7200
165.000000, 91.386, 158.6832
167.500000, 91.316, 159.0848
170.000000, 91.279, 159.4185
172.500000, 91.218, 159.4519
175.000000, 91.093, 159.7510
177.500000, 91.052, 160.4579
180.000000, 91.047, 160.5845
182.500000, 90.999, 160.4937
185.000000, 90.930, 160.4723
187.500000, 90.877, 160.7170
190.000000, 90.847, 161.1021
192.500000, 90.776, 161.3440
195.000000, 90.707, 161.9474
197.500000, 90.711, 162.2444
200.000000, 90.708, 162.0449
203.000000, 90.678, 161.8447
206.000000, 90.664, 162.2679
209.000000, 90.648, 162.6247
212.000000, 90.559, 162.6743
214.000000, 90.477, 162.6024
218.000000, 90.309, 162.4947
220.000000, 90.248, 162.6142
224.000000, 90.209, 163.0549
227.000000, 90.199, 163.0219
230.000000, 90.214, 162.7494
233.000000, 90.202, 162.3616
236.000000, 90.135, 163.2004
240.000000, 90.076, 164.7213
243.000000, 90.004, 164.9406
247.000000, 89.886, 164.7363
250.000000, 89.866, 164.7941
254.000000, 89.829, 165.6396
258.000000, 89.725, 166.5135
262.000000, 89.685, 166.0936
265.000000, 89.668, 165.8582
269.000000, 89.619, 166.2693
272.000000, 89.583, 166.5991
276.000000, 89.532, 166.9545
280.000000, 89.454, 167.4557
285.000000, 89.394, 167.8038
290.000000, 89.275, 168.4483
295.000000, 89.149, 169.3147
300.000000, 89.176, 169.9982
304.000000, 89.154, 170.6348
307.000000, 89.114, 170.9837
311.000000, 89.077, 170.9157
315.000000, 89.083, 170.5654
320.000000, 89.113, 170.5529
325.000000, 89.077, 171.5995
330.000000, 89.021, 172.1153
335.000000, 88.979, 172.7968
340.000000, 88.894, 173.3586
345.000000, 88.840, 173.3786
350.000000, 88.855, 173.4958
355.000000, 88.847, 174.0742
360.000000, 88.803, 174.6294
365.000000, 88.757, 175.0631
370.000000, 88.727, 175.3826
375.000000, 88.711, 175.7967
382.000000, 88.665, 176.3346
387.000000, 88.617, 176.4446
395.000000, 88.449, 177.0928
400.000000, 88.409, 177.8212
406.000000, 88.442, 178.7122
412.000000, 88.440, 179.4288
418.000000, 88.406, 179.7810
425.000000, 88.427, -179.6179
431.000000, 88.417, -178.8985
437.000000, 88.392, -179.0049
444.000000, 88.309, -178.8150
450.000000, 88.283, -178.4699
455.000000, 88.339, -177.7441
462.000000, 88.333, -176.3069
468.000000, 88.173, -175.0227
475.000000, 88.080, -174.3051
482.000000, 88.082, -174.6231
487.000000, 88.137, -174.8340
494.000000, 88.242, -173.9292
500.000000, 88.224, -173.4830
508.000000, 88.132, -172.7722
515.000000, 88.061, -171.9884
522.000000, 88.032, -171.3383
530.000000, 88.021, -170.6495
538.000000, 88.045, -170.0536
545.000000, 88.055, -169.4507
552.000000, 88.027, -168.7648
560.000000, 87.994, -168.0256
570.000000, 87.975, -167.1408
580.000000, 87.973, -166.3458
590.000000, 87.962, -165.5331
600.000000, 87.909, -164.6856
608.000000, 87.895, -163.8137
615.000000, 87.936, -162.9422
622.000000, 87.973, -162.5240
630.000000, 87.989, -162.0950
640.000000, 87.978, -161.3375
650.000000, 87.957, -160.4126
660.000000, 87.956, -159.4265
670.000000, 87.956, -158.7054
680.000000, 87.949, -157.9796
690.000000, 87.916, -157.3656
700.000000, 87.882, -157.1308
710.000000, 87.958, -155.9357
720.000000, 88.040, -154.3382
730.000000, 88.046, -153.7567
740.000000, 88.028, -152.8623
750.000000, 88.066, -152.1043
762.000000, 88.087, -151.1630
775.000000, 88.134, -149.9633
788.000000, 88.177, -148.8015
800.000000, 88.212, -147.8445
812.000000, 88.246, -146.8280
825.000000, 88.291, -145.7544
838.000000, 88.352, -144.7381
850.000000, 88.410, -143.7747
862.000000, 88.460, -142.8228
875.000000, 88.511, -141.8368
885.000000, 88.557, -141.1004
900.000000, 88.648, -140.0933
912.000000, 88.725, -139.2202
925.000000, 88.790, -138.1497
938.000000, 88.858, -137.1230
950.000000, 88.933, -136.3461
962.000000, 89.016, -135.5969
975.000000, 89.110, -134.8127
988.000000, 89.196, -134.1246
1000.000000, 89.269, -133.3750
1015.000000, 89.352, -132.4559
1030.000000, 89.446, -131.7249
1044.000000, 89.540, -131.0376
1060.000000, 89.642, -130.2273
1075.000000, 89.731, -129.5278
1090.000000, 89.830, -128.8333
1106.000000, 89.948, -128.1157
1120.000000, 90.052, -127.5038
1138.000000, 90.186, -126.7493
1150.000000, 90.277, -126.2717
1172.000000, 90.441, -125.4853
1180.000000, 90.500, -125.2077
1206.000000, 90.689, -124.3067
1220.000000, 90.797, -123.8518
1241.000000, 90.954, -123.2114
1250.000000, 91.016, -122.9219
1265.000000, 91.116, -122.4651
1280.000000, 91.214, -122.0408
1315.000000, 91.437, -121.0415
1320.000000, 91.468, -120.8968
1340.000000, 91.582, -120.3538
1360.000000, 91.674, -119.8152
1380.000000, 91.764, -119.2488
1400.000000, 91.870, -118.6866
1430.000000, 92.031, -117.8462
1450.000000, 92.134, -117.2494
1475.000000, 92.265, -116.4951
1500.000000, 92.404, -115.7249
1525.000000, 92.550, -115.0687
1550.000000, 92.691, -114.4158
1575.000000, 92.821, -113.7582
1600.000000, 92.951, -113.1766
1625.000000, 93.077, -112.5586
1650.000000, 93.199, -111.9298
1675.000000, 93.325, -111.3484
1700.000000, 93.450, -110.7500
1725.000000, 93.574, -110.1564
1750.000000, 93.698, -109.5513
1775.000000, 93.825, -108.9926
1800.000000, 93.952, -108.4307
1825.000000, 94.081, -107.8770
1850.000000, 94.209, -107.3551
1875.000000, 94.337, -106.8335
1900.000000, 94.467, -106.3434
1925.000000, 94.599, -105.8806
1950.000000, 94.728, -105.4141
1975.000000, 94.857, -104.9885
2000.000000, 94.986, -104.5972
2030.000000, 95.138, -104.1322
2060.000000, 95.294, -103.7013
2090.000000, 95.455, -103.3047
2120.000000, 95.612, -102.9508
2140.000000, 95.713, -102.7400
2180.000000, 95.912, -102.3128
2200.000000, 96.012, -102.1472
2240.000000, 96.211, -101.8507
2270.000000, 96.357, -101.6671
2300.000000, 96.500, -101.5417
2330.000000, 96.635, -101.4292
2360.000000, 96.765, -101.3503
2400.000000, 96.934, -101.3290
2430.000000, 97.054, -101.3289
2470.000000, 97.209, -101.3620
2500.000000, 97.317, -101.4259
2540.000000, 97.446, -101.4886
2580.000000, 97.568, -101.5481
2620.000000, 97.683, -101.6015
2650.000000, 97.761, -101.5870
2690.000000, 97.868, -101.4830
2720.000000, 97.961, -101.4518
2760.000000, 98.092, -101.4819
2800.000000, 98.216, -101.6249
2850.000000, 98.352, -102.0120
2900.000000, 98.456, -102.4587
2950.000000, 98.532, -102.9011
3000.000000, 98.583, -103.3116
3040.000000, 98.606, -103.5669
3070.000000, 98.617, -103.7414
3110.000000, 98.622, -103.8724
3150.000000, 98.619, -103.8816
3200.000000, 98.619, -103.7426
3250.000000, 98.637, -103.4789
3300.000000, 98.680, -103.1280
3350.000000, 98.750, -102.9056
3400.000000, 98.836, -102.8704
3450.000000, 98.914, -103.0041
3500.000000, 98.967, -103.2333
3550.000000, 98.999, -103.4762
3600.000000, 99.017, -103.7400
3650.000000, 99.027, -103.9452
3700.000000, 99.026, -104.0916
3750.000000, 99.014, -104.1651
3820.000000, 98.985, -104.1792
3870.000000, 98.965, -104.1763
3950.000000, 98.926, -104.0979
4000.000000, 98.901, -104.0188
4060.000000, 98.871, -103.9443
4120.000000, 98.835, -103.8382
4180.000000, 98.801, -103.7606
4250.000000, 98.759, -103.7325
4310.000000, 98.706, -103.7090
4370.000000, 98.635, -103.7264
4440.000000, 98.541, -103.7629
4500.000000, 98.446, -103.8326
4550.000000, 98.355, -103.8625
4620.000000, 98.212, -103.9244
4680.000000, 98.071, -103.9230
4750.000000, 97.890, -103.8802
4820.000000, 97.694, -103.7848
4870.000000, 97.539, -103.6716
4940.000000, 97.302, -103.3927
5000.000000, 97.089, -103.0676
5080.000000, 96.782, -102.4246
5150.000000, 96.493, -101.6508
5220.000000, 96.201, -100.6438
5300.000000, 95.873, -99.2679
5380.000000, 95.545, -97.5583
5450.000000, 95.269, -95.8414
5520.000000, 95.013, -93.9008
5600.000000, 94.753, -91.3996
5700.000000, 94.487, -87.9522
5800.000000, 94.297, -84.3388
5900.000000, 94.187, -80.6905
6000.000000, 94.154, -77.2380
6080.000000, 94.171, -74.6169
6150.000000, 94.204, -72.4783
6220.000000, 94.250, -70.5181
6300.000000, 94.308, -68.4122
6400.000000, 94.376, -65.9864
6500.000000, 94.446, -63.6745
6600.000000, 94.524, -61.4202
6700.000000, 94.607, -59.1815
6800.000000, 94.713, -56.9561
6900.000000, 94.869, -54.7704
7000.000000, 95.076, -52.6454
7100.000000, 95.330, -50.6701
7200.000000, 95.629, -48.9384
7300.000000, 95.969, -47.4938
7400.000000, 96.345, -46.5225
7500.000000, 96.751, -46.1092
7620.000000, 97.261, -46.5379
7750.000000, 97.795, -48.2735
7880.000000, 98.136, -51.3599
8000.000000, 98.220, -55.1717
8120.000000, 98.071, -59.4687
8250.000000, 97.628, -64.0059
8380.000000, 96.920, -67.6834
8500.000000, 96.098, -69.9671
8620.000000, 95.179, -70.9875
8750.000000, 94.132, -70.8177
8850.000000, 93.326, -69.8362
9000.000000, 92.160, -67.2677
9120.000000, 91.280, -64.4210
9250.000000, 90.383, -60.7528
9380.000000, 89.553, -56.5618
9500.000000, 88.848, -52.3795
9620.000000, 88.201, -47.8845
9750.000000, 87.566, -42.7449
9880.000000, 86.991, -37.4212
10000.000000, 86.511, -32.2965
10150.000000, 85.982, -25.7497
10300.000000, 85.523, -19.0608
10440.000000, 85.150, -12.6759
10600.000000, 84.800, -5.3298
10750.000000, 84.543, 1.6068
10900.000000, 84.348, 8.4964
11060.000000, 84.212, 15.8307
11200.000000, 84.149, 22.2324
11380.000000, 84.139, 30.4075
11500.000000, 84.186, 35.8788
11720.000000, 84.416, 45.6566
11800.000000, 84.534, 49.0403
12060.000000, 84.999, 59.4938
12200.000000, 85.316, 64.9796
12410.000000, 85.907, 72.8604
12500.000000, 86.215, 76.0367
12650.000000, 86.811, 80.9780
12800.000000, 87.510, 85.2748
13150.000000, 89.536, 91.1856
13200.000000, 89.857, 91.3632
13400.000000, 91.103, 89.8387
13600.000000, 92.067, 84.7107
13800.000000, 92.464, 76.9223
14000.000000, 92.143, 68.8518
14300.000000, 90.585, 61.0366
14500.000000, 89.236, 59.9907
14750.000000, 87.610, 62.6817
15000.000000, 86.265, 68.4881
15250.000000, 85.315, 76.1271
15500.000000, 84.842, 84.2630
15750.000000, 84.814, 91.2528
16000.000000, 84.970, 96.0452
16250.000000, 85.059, 98.9140
16500.000000, 84.980, 100.7815
16750.000000, 84.754, 102.5804
17000.000000, 84.455, 104.5221
17250.000000, 84.153, 106.4523
17500.000000, 83.883, 108.0857
17750.000000, 83.636, 109.0620
18000.000000, 83.384, 108.9061
18250.000000, 83.065, 107.2656
18500.000000, 82.599, 104.0941
18750.000000, 81.910, 99.9946
19000.000000, 80.889, 96.2629
19250.000000, 79.403, 94.3245
19500.000000, 77.363, 95.2581
19750.000000, 74.824, 99.7067
20000.000000, 71.944, 108.5432
20300.000000, 68.522, 126.0544
20600.000000, 65.967, 146.6351
20900.000000, 64.113, 164.5761
21200.000000, 62.400, -179.7588
21400.000000, 61.234, -170.1258
21800.000000, 58.452, -153.4823
22000.000000, 56.320, -146.5251
22400.000000, 49.491, -135.4106
22700.000000, 42.618, -126.9485
23000.000000, 36.044, -118.8628
23300.000000, 32.732, -75.6499
23600.000000, 31.980, 33.1849
24000.000000, 31.760, -124.1143
