* Measurement data measured by REW V5.20.13
* Source: Headset (DS by VECLAN.COM), MICROPHONE (Master Volume), L, volume: 0.720. Timing signal peak level -15.4 dBFS, measurement signal peak level -13.9 dBFS
* Format: 4M Log Swept Sine, 1 sweep at -12.0 dBFS using an acoustic timing reference
* Dated: Nov 25, 2023 2:11:28 AM
* REW Settings:
*  C-weighting compensation: Off
*  Target level: 75.0 dB
* Note: ; Apple + Abigail Delay -0.0623 ms (-21 mm, -0.84 in) using estimated IR delay relative to Acoustic reference played from HEADPHONE L with no timing offset Clock adjustment: -0.1 ppm
* Measurement: Simgot EW200 S2 L
* Smoothing: 1/24 octave
* Frequency Step: 1/48 octave
* Start Frequency: 1.000 Hz
*
* Freq(Hz) SPL(dB) Phase(degrees)
1.000000 67.189 -14.5672
1.015000 67.518 -17.5159
1.030000 67.841 -20.3248
1.044000 68.136 -22.8058
1.060000 68.464 -25.4572
1.075000 68.761 -27.7476
1.090000 69.044 -29.8319
1.106000 69.333 -31.8180
1.120000 69.586 -33.3962
1.138000 69.915 -35.2299
1.150000 70.136 -36.3368
1.172000 70.543 -38.1423
1.180000 70.692 -38.7311
1.206000 71.175 -40.4158
1.220000 71.435 -41.1889
1.241000 71.823 -42.1913
1.250000 71.988 -42.5680
1.265000 72.262 -43.1320
1.280000 72.533 -43.6234
1.315000 73.151 -44.5347
1.320000 73.238 -44.6426
1.340000 73.578 -45.0304
1.360000 73.909 -45.3634
1.380000 74.229 -45.6615
1.400000 74.536 -45.9443
1.430000 74.971 -46.3835
1.450000 75.242 -46.7151
1.475000 75.557 -47.1830
1.500000 75.847 -47.5199
1.525000 76.114 -47.6961
1.550000 76.361 -47.7346
1.575000 76.589 -47.6580
1.600000 76.800 -47.4893
1.625000 76.998 -47.2513
1.650000 77.183 -46.9667
1.675000 77.357 -46.6583
1.700000 77.523 -46.3491
1.725000 77.684 -46.0618
1.750000 77.839 -45.8192
1.775000 77.993 -45.6442
1.800000 78.147 -45.5595
1.825000 78.302 -45.5880
1.850000 78.457 -45.7311
1.875000 78.602 -45.9441
1.900000 78.739 -46.2160
1.925000 78.867 -46.5375
1.950000 78.989 -46.8995
1.975000 79.105 -47.2927
2.000000 79.217 -47.7080
2.030000 79.346 -48.2226
2.060000 79.473 -48.7398
2.090000 79.598 -49.2437
2.120000 79.724 -49.7184
2.140000 79.809 -50.0108
2.180000 79.986 -50.5168
2.200000 80.079 -50.7210
2.240000 80.266 -51.0527
2.270000 80.408 -51.2516
2.300000 80.549 -51.4164
2.330000 80.690 -51.5549
2.360000 80.831 -51.6748
2.400000 81.018 -51.8193
2.430000 81.158 -51.9261
2.470000 81.344 -52.0813
2.500000 81.482 -52.2173
2.540000 81.664 -52.4396
2.580000 81.845 -52.7218
2.620000 82.023 -53.0423
2.650000 82.156 -53.3006
2.690000 82.332 -53.6647
2.720000 82.463 -53.9497
2.760000 82.637 -54.3413
2.800000 82.809 -54.7414
2.850000 83.023 -55.2456
2.900000 83.235 -55.7446
2.950000 83.445 -56.2307
3.000000 83.654 -56.7187
3.040000 83.820 -57.1128
3.070000 83.944 -57.4101
3.110000 84.107 -57.8081
3.150000 84.270 -58.2072
3.200000 84.471 -58.7065
3.250000 84.671 -59.2050
3.300000 84.869 -59.7010
3.350000 85.066 -60.1876
3.400000 85.261 -60.6650
3.450000 85.454 -61.1400
3.500000 85.645 -61.6190
3.550000 85.834 -62.1089
3.600000 86.022 -62.6161
3.650000 86.206 -63.1473
3.700000 86.389 -63.7084
3.750000 86.569 -64.2973
3.820000 86.819 -65.1552
3.870000 86.995 -65.7823
3.950000 87.270 -66.7914
4.000000 87.439 -67.4146
4.060000 87.637 -68.1455
4.120000 87.831 -68.8651
4.180000 88.022 -69.5804
4.250000 88.239 -70.4171
4.310000 88.421 -71.1429
4.370000 88.599 -71.8830
4.440000 88.801 -72.7725
4.500000 88.970 -73.5573
4.550000 89.107 -74.2214
4.620000 89.295 -75.1572
4.680000 89.451 -75.9565
4.750000 89.630 -76.8747
4.820000 89.803 -77.7732
4.870000 89.924 -78.4086
4.940000 90.088 -79.2915
5.000000 90.225 -80.0440
5.080000 90.402 -81.0443
5.150000 90.552 -81.9199
5.220000 90.695 -82.8003
5.300000 90.853 -83.8060
5.380000 91.004 -84.8017
5.450000 91.132 -85.6570
5.520000 91.255 -86.4914
5.600000 91.390 -87.4262
5.700000 91.550 -88.5684
5.800000 91.702 -89.6788
5.900000 91.849 -90.7542
6.000000 91.990 -91.7928
6.080000 92.098 -92.6005
6.150000 92.189 -93.2927
6.220000 92.279 -93.9737
6.300000 92.380 -94.7377
6.400000 92.501 -95.6686
6.500000 92.618 -96.5748
6.600000 92.731 -97.4580
6.700000 92.840 -98.3171
6.800000 92.945 -99.1523
6.900000 93.048 -99.9665
7.000000 93.147 -100.7618
7.100000 93.244 -101.5361
7.200000 93.338 -102.2909
7.300000 93.430 -103.0285
7.400000 93.520 -103.7490
7.500000 93.608 -104.4501
7.620000 93.711 -105.2734
7.750000 93.820 -106.1516
7.880000 93.927 -107.0125
8.000000 94.022 -107.7933
8.120000 94.115 -108.5636
8.250000 94.212 -109.3851
8.380000 94.307 -110.1929
8.500000 94.391 -110.9263
8.620000 94.473 -111.6479
8.750000 94.559 -112.4164
8.850000 94.624 -112.9978
9.000000 94.718 -113.8531
9.120000 94.793 -114.5270
9.250000 94.874 -115.2484
9.380000 94.954 -115.9594
9.500000 95.025 -116.6129
9.620000 95.093 -117.2667
9.750000 95.164 -117.9730
9.880000 95.228 -118.6799
10.000000 95.278 -119.3357
10.150000 95.331 -120.1566
10.300000 95.376 -120.9716
10.440000 95.408 -121.7264
10.600000 95.439 -122.5836
10.750000 95.466 -123.3814
10.900000 95.490 -124.1743
11.060000 95.514 -125.0185
11.200000 95.533 -125.7585
11.380000 95.553 -126.6873
11.500000 95.562 -127.2902
11.720000 95.576 -128.3497
11.800000 95.580 -128.7143
12.060000 95.592 -129.8301
12.200000 95.601 -130.3845
12.410000 95.618 -131.1587
12.500000 95.627 -131.4727
12.650000 95.645 -131.9667
12.800000 95.668 -132.4446
13.150000 95.741 -133.5385
13.200000 95.753 -133.7011
13.400000 95.809 -134.3679
13.600000 95.867 -135.0815
13.800000 95.927 -135.8532
14.000000 95.981 -136.6719
14.300000 96.046 -137.9704
14.500000 96.073 -138.8446
14.750000 96.093 -139.8920
15.000000 96.099 -140.8616
15.250000 96.100 -141.7179
15.500000 96.102 -142.4643
15.750000 96.108 -143.1115
16.000000 96.124 -143.6936
16.250000 96.148 -144.2612
16.500000 96.179 -144.8381
16.750000 96.213 -145.4513
17.000000 96.247 -146.0963
17.250000 96.278 -146.7621
17.500000 96.303 -147.4316
17.750000 96.322 -148.0842
18.000000 96.337 -148.7160
18.250000 96.350 -149.3237
18.500000 96.363 -149.9118
18.750000 96.376 -150.4857
19.000000 96.391 -151.0505
19.250000 96.406 -151.6131
19.500000 96.421 -152.1715
19.750000 96.436 -152.7242
20.000000 96.450 -153.2671
20.299999 96.466 -153.9092
20.600000 96.482 -154.5473
20.900000 96.497 -155.1895
21.200001 96.509 -155.8395
21.400000 96.513 -156.2698
21.799999 96.513 -157.0939
22.000000 96.509 -157.4716
22.400000 96.501 -158.1325
22.700001 96.502 -158.5521
23.000000 96.515 -158.9420
23.299999 96.540 -159.3560
23.600000 96.572 -159.8366
24.000000 96.615 -160.6144
24.299999 96.637 -161.2805
24.700001 96.642 -162.1982
25.000000 96.629 -162.8373
25.400000 96.600 -163.5559
25.799999 96.573 -164.1155
26.200001 96.558 -164.5799
26.500000 96.557 -164.9184
26.900000 96.562 -165.4001
27.200001 96.566 -165.7886
27.600000 96.566 -166.3215
28.000000 96.561 -166.8366
28.500000 96.554 -167.4294
29.000000 96.551 -167.9850
29.500000 96.553 -168.5420
30.000000 96.552 -169.1177
30.400000 96.547 -169.5808
30.700001 96.541 -169.9216
31.100000 96.533 -170.3642
31.500000 96.525 -170.8003
32.000000 96.516 -171.3534
32.500000 96.504 -171.9216
33.000000 96.486 -172.4864
33.500000 96.464 -173.0233
34.000000 96.442 -173.5275
34.500000 96.425 -174.0155
35.000000 96.411 -174.5017
35.500000 96.400 -174.9863
36.000000 96.389 -175.4621
36.500000 96.380 -175.9313
37.000000 96.371 -176.4079
37.500000 96.358 -176.8941
38.200001 96.333 -177.5494
38.700001 96.310 -177.9705
39.500000 96.275 -178.5594
40.000000 96.255 -178.8914
40.599998 96.237 -179.2815
41.200001 96.220 -179.6976
41.799999 96.201 179.8461
42.500000 96.172 179.2903
43.099998 96.140 178.8317
43.700001 96.108 178.4058
44.400002 96.074 177.9387
45.000000 96.048 177.5477
45.500000 96.028 177.2292
46.200001 96.002 176.8031
46.799999 95.984 176.4451
47.500000 95.964 176.0140
48.200001 95.937 175.6042
48.700001 95.916 175.3568
49.400002 95.893 175.0520
50.000000 95.878 174.7623
50.799999 95.853 174.3059
51.500000 95.818 173.9165
52.200001 95.781 173.5773
53.000000 95.743 173.2135
53.799999 95.711 172.8469
54.500000 95.684 172.5126
55.200001 95.656 172.1643
56.000000 95.624 171.7844
57.000000 95.587 171.3197
58.000000 95.534 170.8296
59.000000 95.464 170.5153
60.000000 95.420 170.3144
60.799999 95.401 170.0004
61.500000 95.374 169.6457
62.200001 95.338 169.3179
63.000000 95.300 168.9747
64.000000 95.256 168.5150
65.000000 95.204 168.1001
66.000000 95.154 167.8515
67.000000 95.120 167.6958
68.000000 95.085 167.5578
69.000000 95.060 167.5628
70.000000 95.074 167.3341
71.000000 95.041 166.6656
72.000000 94.940 166.1837
73.000000 94.854 165.9994
74.000000 94.796 165.8156
75.000000 94.750 165.5725
76.199997 94.701 165.2304
77.500000 94.646 164.8838
78.800003 94.589 164.5802
80.000000 94.535 164.3555
81.199997 94.482 164.1429
82.500000 94.422 163.9149
83.800003 94.362 163.6928
85.000000 94.311 163.4916
86.199997 94.263 163.2905
87.500000 94.212 163.0577
88.500000 94.170 162.8896
90.000000 94.109 162.6656
91.199997 94.061 162.4816
92.500000 94.007 162.3008
93.800003 93.954 162.1373
95.000000 93.903 161.9904
96.199997 93.849 161.8592
97.500000 93.793 161.7245
98.800003 93.738 161.5900
100.000000 93.688 161.4634
101.500000 93.629 161.2901
103.000000 93.573 161.1277
104.400002 93.521 160.9928
106.000000 93.457 160.8444
107.500000 93.396 160.7542
109.000000 93.338 160.6820
110.599998 93.276 160.6003
112.000000 93.220 160.5368
113.800003 93.149 160.4625
115.000000 93.102 160.4010
117.199997 93.022 160.2616
118.000000 92.994 160.2020
120.599998 92.896 160.0597
122.000000 92.846 160.0709
124.099998 92.782 160.0933
125.000000 92.754 160.0850
126.500000 92.705 160.0616
128.000000 92.656 160.0351
131.500000 92.543 159.9770
132.000000 92.527 159.9724
134.000000 92.468 159.9735
136.000000 92.415 159.9958
138.000000 92.362 160.0178
140.000000 92.301 160.0210
143.000000 92.210 160.1061
145.000000 92.156 160.1497
147.500000 92.089 160.2104
150.000000 92.025 160.2945
152.500000 91.966 160.3412
155.000000 91.904 160.3618
157.500000 91.840 160.4520
160.000000 91.774 160.5812
162.500000 91.711 160.6923
165.000000 91.650 160.7799
167.500000 91.590 160.8901
170.000000 91.527 161.0128
172.500000 91.458 161.1141
175.000000 91.398 161.2446
177.500000 91.350 161.3872
180.000000 91.298 161.5447
182.500000 91.238 161.7143
185.000000 91.174 161.8594
187.500000 91.114 161.9963
190.000000 91.059 162.1574
192.500000 91.010 162.3236
195.000000 90.965 162.4893
197.500000 90.922 162.6646
200.000000 90.877 162.8295
203.000000 90.819 163.0219
206.000000 90.761 163.2180
209.000000 90.702 163.4138
212.000000 90.654 163.6274
214.000000 90.625 163.7771
218.000000 90.565 164.0660
220.000000 90.532 164.2060
224.000000 90.468 164.4843
227.000000 90.420 164.6957
230.000000 90.372 164.9221
233.000000 90.326 165.1603
236.000000 90.285 165.3929
240.000000 90.230 165.6800
243.000000 90.187 165.9203
247.000000 90.129 166.2625
250.000000 90.088 166.5175
254.000000 90.034 166.8688
258.000000 89.981 167.2046
262.000000 89.931 167.5085
265.000000 89.896 167.7396
269.000000 89.853 168.0614
272.000000 89.822 168.3030
276.000000 89.783 168.6325
280.000000 89.747 168.9791
285.000000 89.701 169.4255
290.000000 89.653 169.8463
295.000000 89.602 170.2678
300.000000 89.555 170.6970
304.000000 89.524 171.0287
307.000000 89.504 171.2662
311.000000 89.479 171.5934
315.000000 89.454 171.9310
320.000000 89.425 172.3376
325.000000 89.393 172.7408
330.000000 89.360 173.1500
335.000000 89.328 173.5580
340.000000 89.298 173.9746
345.000000 89.266 174.3819
350.000000 89.235 174.7684
355.000000 89.208 175.1494
360.000000 89.178 175.5482
365.000000 89.153 175.9960
370.000000 89.128 176.4402
375.000000 89.105 176.8555
382.000000 89.075 177.4184
387.000000 89.051 177.8223
395.000000 89.013 178.4718
400.000000 88.992 178.8589
406.000000 88.970 179.3452
412.000000 88.948 179.8441
418.000000 88.924 -179.6668
425.000000 88.897 -179.0998
431.000000 88.873 -178.6165
437.000000 88.853 -178.1502
444.000000 88.836 -177.6332
450.000000 88.822 -177.1786
455.000000 88.809 -176.7836
462.000000 88.788 -176.2352
468.000000 88.771 -175.7685
475.000000 88.753 -175.2344
482.000000 88.737 -174.7044
487.000000 88.727 -174.3147
494.000000 88.716 -173.7801
500.000000 88.707 -173.3323
508.000000 88.695 -172.7299
515.000000 88.686 -172.1938
522.000000 88.679 -171.6487
530.000000 88.675 -171.0335
538.000000 88.672 -170.4468
545.000000 88.671 -169.9296
552.000000 88.671 -169.3943
560.000000 88.671 -168.7814
570.000000 88.672 -168.0360
580.000000 88.673 -167.2812
590.000000 88.675 -166.5237
600.000000 88.676 -165.7810
608.000000 88.677 -165.1816
615.000000 88.681 -164.6427
622.000000 88.686 -164.0970
630.000000 88.691 -163.4817
640.000000 88.700 -162.7360
650.000000 88.713 -161.9833
660.000000 88.725 -161.2148
670.000000 88.733 -160.4620
680.000000 88.747 -159.7184
690.000000 88.767 -158.9753
700.000000 88.787 -158.2291
710.000000 88.810 -157.4705
720.000000 88.835 -156.7155
730.000000 88.862 -155.9680
740.000000 88.892 -155.2245
750.000000 88.925 -154.4782
762.000000 88.968 -153.5818
775.000000 89.017 -152.6108
788.000000 89.069 -151.6578
800.000000 89.122 -150.8054
812.000000 89.179 -149.9651
825.000000 89.252 -149.0854
838.000000 89.333 -148.2801
850.000000 89.413 -147.6525
862.000000 89.483 -147.2466
875.000000 89.495 -147.0041
885.000000 89.441 -146.5556
900.000000 89.389 -144.9908
912.000000 89.453 -143.5520
925.000000 89.569 -142.3211
938.000000 89.683 -141.3471
950.000000 89.785 -140.5624
962.000000 89.892 -139.8415
975.000000 90.010 -139.1038
988.000000 90.120 -138.3673
1000.000000 90.214 -137.7130
1015.000000 90.323 -137.0118
1030.000000 90.438 -136.3604
1044.000000 90.548 -135.7659
1060.000000 90.674 -135.1103
1075.000000 90.789 -134.5117
1090.000000 90.906 -133.9492
1106.000000 91.041 -133.3943
1120.000000 91.161 -132.9349
1138.000000 91.313 -132.3852
1150.000000 91.412 -132.0363
1172.000000 91.591 -131.4190
1180.000000 91.656 -131.2015
1206.000000 91.863 -130.5388
1220.000000 91.975 -130.2069
1241.000000 92.145 -129.7189
1250.000000 92.218 -129.5097
1265.000000 92.340 -129.1703
1280.000000 92.460 -128.8378
1315.000000 92.734 -128.0990
1320.000000 92.773 -128.0007
1340.000000 92.926 -127.6169
1360.000000 93.058 -127.2380
1380.000000 93.182 -126.8627
1400.000000 93.316 -126.5226
1430.000000 93.529 -126.0604
1450.000000 93.675 -125.7832
1475.000000 93.858 -125.4638
1500.000000 94.033 -125.1592
1525.000000 94.197 -124.8615
1550.000000 94.352 -124.5713
1575.000000 94.506 -124.2862
1600.000000 94.661 -124.0150
1625.000000 94.815 -123.7520
1650.000000 94.969 -123.4870
1675.000000 95.126 -123.2368
1700.000000 95.280 -123.0054
1725.000000 95.433 -122.7878
1750.000000 95.589 -122.5938
1775.000000 95.747 -122.4197
1800.000000 95.908 -122.2655
1825.000000 96.070 -122.1447
1850.000000 96.231 -122.0542
1875.000000 96.393 -121.9882
1900.000000 96.554 -121.9487
1925.000000 96.715 -121.9388
1950.000000 96.876 -121.9639
1975.000000 97.042 -122.0242
2000.000000 97.204 -122.1317
2030.000000 97.387 -122.3380
2060.000000 97.570 -122.6024
2090.000000 97.753 -122.9157
2120.000000 97.931 -123.2857
2140.000000 98.049 -123.5661
2180.000000 98.278 -124.2004
2200.000000 98.387 -124.5494
2240.000000 98.598 -125.3033
2270.000000 98.747 -125.9231
2300.000000 98.883 -126.5851
2330.000000 99.011 -127.2892
2360.000000 99.133 -128.0310
2400.000000 99.282 -129.0652
2430.000000 99.380 -129.8578
2470.000000 99.495 -130.9424
2500.000000 99.570 -131.7662
2540.000000 99.652 -132.8751
2580.000000 99.718 -133.9824
2620.000000 99.771 -135.0734
2650.000000 99.799 -135.8742
2690.000000 99.825 -136.9090
2720.000000 99.833 -137.6493
2760.000000 99.825 -138.5795
2800.000000 99.802 -139.4502
2850.000000 99.763 -140.4473
2900.000000 99.715 -141.3306
2950.000000 99.659 -142.1048
3000.000000 99.592 -142.7674
3040.000000 99.531 -143.2473
3070.000000 99.483 -143.5698
3110.000000 99.421 -143.9325
3150.000000 99.361 -144.2215
3200.000000 99.289 -144.4979
3250.000000 99.221 -144.6938
3300.000000 99.152 -144.8035
3350.000000 99.086 -144.8296
3400.000000 99.034 -144.7876
3450.000000 98.997 -144.6857
3500.000000 98.974 -144.5540
3550.000000 98.961 -144.4156
3600.000000 98.955 -144.2743
3650.000000 98.958 -144.1413
3700.000000 98.964 -144.0174
3750.000000 98.972 -143.8968
3820.000000 98.992 -143.7370
3870.000000 99.014 -143.6444
3950.000000 99.057 -143.5486
4000.000000 99.089 -143.5313
4060.000000 99.137 -143.5711
4120.000000 99.193 -143.6817
4180.000000 99.254 -143.8770
4250.000000 99.328 -144.2496
4310.000000 99.387 -144.7262
4370.000000 99.434 -145.3531
4440.000000 99.468 -146.2482
4500.000000 99.476 -147.1313
4550.000000 99.465 -147.9372
4620.000000 99.417 -149.1460
4680.000000 99.352 -150.2500
4750.000000 99.246 -151.5710
4820.000000 99.105 -152.8763
4870.000000 98.982 -153.7749
4940.000000 98.783 -154.9688
5000.000000 98.588 -155.9030
5080.000000 98.297 -156.9665
5150.000000 98.015 -157.7186
5220.000000 97.712 -158.2801
5300.000000 97.346 -158.6692
5380.000000 96.959 -158.7775
5450.000000 96.617 -158.6390
5520.000000 96.278 -158.2865
5600.000000 95.892 -157.6227
5700.000000 95.417 -156.4302
5800.000000 94.961 -154.8717
5900.000000 94.521 -152.8573
6000.000000 94.134 -150.2531
6080.000000 93.909 -147.9753
6150.000000 93.759 -146.1038
6220.000000 93.622 -144.3267
6300.000000 93.476 -142.2545
6400.000000 93.323 -139.4970
6500.000000 93.223 -136.6185
6600.000000 93.180 -133.7047
6700.000000 93.196 -130.8150
6800.000000 93.284 -127.9995
6900.000000 93.459 -125.2976
7000.000000 93.716 -122.7618
7100.000000 94.046 -120.4568
7200.000000 94.449 -118.4700
7300.000000 94.926 -116.9393
7400.000000 95.475 -116.0100
7500.000000 96.089 -115.8530
7620.000000 96.897 -116.9877
7750.000000 97.771 -120.2999
7880.000000 98.429 -126.1978
8000.000000 98.700 -133.7831
8120.000000 98.528 -142.4033
8250.000000 97.810 -151.0390
8380.000000 96.659 -157.2632
8500.000000 95.395 -160.3569
8620.000000 94.094 -161.1932
8750.000000 92.752 -160.1933
8850.000000 91.799 -158.4701
9000.000000 90.516 -154.8286
9120.000000 89.615 -151.2846
9250.000000 88.752 -147.0186
9380.000000 87.993 -142.4377
9500.000000 87.373 -137.9859
9620.000000 86.824 -133.3564
9750.000000 86.314 -128.1890
9880.000000 85.888 -122.9041
10000.000000 85.560 -117.9530
10150.000000 85.234 -111.7068
10300.000000 84.997 -105.4230
10440.000000 84.854 -99.5244
10600.000000 84.786 -92.7397
10750.000000 84.812 -86.3369
10900.000000 84.936 -79.8944
11060.000000 85.196 -72.9463
11200.000000 85.568 -66.7654
11380.000000 86.322 -58.9806
11500.000000 87.012 -54.3610
11720.000000 88.561 -47.9340
11800.000000 89.207 -46.2509
12060.000000 91.738 -43.7379
12200.000000 93.350 -45.5938
12410.000000 95.610 -56.1617
12500.000000 96.279 -64.1949
12650.000000 96.680 -80.9758
12800.000000 96.067 -97.8723
13150.000000 91.863 -118.2180
13200.000000 91.137 -118.7549
13400.000000 88.353 -116.6230
13600.000000 86.069 -109.7105
13800.000000 84.501 -100.6029
14000.000000 83.593 -91.2041
14300.000000 83.074 -78.2836
14500.000000 83.128 -70.7244
14750.000000 83.569 -62.6892
15000.000000 84.408 -56.7626
15250.000000 85.624 -54.0521
15500.000000 87.070 -56.2373
15750.000000 88.319 -64.8090
16000.000000 88.844 -79.1335
16250.000000 88.389 -95.8706
16500.000000 86.990 -111.8664
16750.000000 84.679 -124.7186
17000.000000 81.327 -128.3558
17250.000000 77.389 -116.4695
17500.000000 75.205 -98.8220
17750.000000 75.141 -90.3128
18000.000000 74.977 -89.9711
18250.000000 74.176 -91.8344
18500.000000 72.854 -93.0044
18750.000000 71.145 -92.1655
19000.000000 69.192 -88.4961
19250.000000 67.150 -81.7723
19500.000000 65.178 -72.3875
19750.000000 63.450 -61.1257
20000.000000 62.048 -48.9965
20300.000000 60.833 -34.7824
20600.000000 60.119 -21.8331
20900.000000 59.826 -10.2561
21200.000000 60.026 -1.2188
21400.000000 60.366 1.8792
21800.000000 60.755 -6.1224
22000.000000 60.423 -34.5219
22400.000000 58.066 110.5325
22700.000000 54.280 126.5886
23000.000000 48.458 -120.5449
23300.000000 42.478 -70.6562
23600.000000 40.489 -26.5508
24000.000000 41.566 -165.2930
