* Measurement data measured by REW V5.20.13
* Source: Headset (DS by VECLAN.COM), MICROPHONE (Master Volume), L, volume: 0.710. Timing signal peak level -15.7 dBFS, measurement signal peak level -14.4 dBFS
* Format: 2M Log Swept Sine, 1 sweep at -12.0 dBFS using an acoustic timing reference
* Dated: Nov 12, 2023 4:20:49 PM
* REW Settings:
*  C-weighting compensation: Off
*  Target level: 75.0 dB
* Note: ; Delay -0.0686 ms (-24 mm, -0.93 in) using estimated IR delay relative to Acoustic reference played from HEADPHONE L with no timing offset
* Measurement: Simgot EW200 CP145 L
* Smoothing: 1/24 octave
* Frequency Step: 1/48 octave
* Start Frequency: 1.000 Hz
*
* Freq(Hz) SPL(dB) Phase(degrees)
1.000000 72.961 4.0635
1.015000 73.244 1.2214
1.030000 73.521 -1.5008
1.044000 73.773 -3.9213
1.060000 74.054 -6.5311
1.075000 74.307 -8.8123
1.090000 74.550 -10.9193
1.106000 74.798 -12.9644
1.120000 75.014 -14.6049
1.138000 75.292 -16.5285
1.150000 75.477 -17.7021
1.172000 75.816 -19.6445
1.180000 75.939 -20.2883
1.206000 76.337 -22.1723
1.220000 76.549 -23.0667
1.241000 76.864 -24.2709
1.250000 76.998 -24.7417
1.265000 77.219 -25.4734
1.280000 77.437 -26.1465
1.315000 77.932 -27.5402
1.320000 78.001 -27.7240
1.340000 78.273 -28.4342
1.360000 78.537 -29.1206
1.380000 78.792 -29.8046
1.400000 79.038 -30.5075
1.430000 79.386 -31.6443
1.450000 79.604 -32.4883
1.475000 79.858 -33.6598
1.500000 80.093 -34.8275
1.525000 80.310 -35.9570
1.550000 80.510 -37.0499
1.575000 80.694 -38.1079
1.600000 80.866 -39.1325
1.625000 81.025 -40.1254
1.650000 81.174 -41.0881
1.675000 81.314 -42.0223
1.700000 81.447 -42.9297
1.725000 81.575 -43.8117
1.750000 81.699 -44.6701
1.775000 81.821 -45.5064
1.800000 81.942 -46.3222
1.825000 82.064 -47.1192
1.850000 82.185 -47.8936
1.875000 82.297 -48.6348
1.900000 82.402 -49.3444
1.925000 82.499 -50.0246
1.950000 82.591 -50.6775
1.975000 82.677 -51.3055
2.000000 82.760 -51.9107
2.030000 82.855 -52.6100
2.060000 82.947 -53.2835
2.090000 83.039 -53.9350
2.120000 83.131 -54.5682
2.140000 83.194 -54.9822
2.180000 83.324 -55.7954
2.200000 83.393 -56.1969
2.240000 83.534 -56.9702
2.270000 83.640 -57.5199
2.300000 83.746 -58.0460
2.330000 83.852 -58.5507
2.360000 83.957 -59.0360
2.400000 84.098 -59.6568
2.430000 84.203 -60.1053
2.470000 84.342 -60.6848
2.500000 84.445 -61.1083
2.540000 84.582 -61.6620
2.580000 84.716 -62.2066
2.620000 84.847 -62.7337
2.650000 84.944 -63.1158
2.690000 85.072 -63.6076
2.720000 85.167 -63.9631
2.760000 85.293 -64.4194
2.800000 85.419 -64.8554
2.850000 85.579 -65.3715
2.900000 85.742 -65.8556
2.950000 85.909 -66.3038
3.000000 86.079 -66.6914
3.040000 86.217 -66.9640
3.070000 86.320 -67.1526
3.110000 86.460 -67.3907
3.150000 86.601 -67.6219
3.200000 86.778 -67.9154
3.250000 86.958 -68.2311
3.300000 87.139 -68.5871
3.350000 87.324 -68.9727
3.400000 87.512 -69.3715
3.450000 87.701 -69.7831
3.500000 87.893 -70.2069
3.550000 88.085 -70.6426
3.600000 88.276 -71.0895
3.650000 88.467 -71.5473
3.700000 88.657 -72.0117
3.750000 88.848 -72.4773
3.820000 89.117 -73.1423
3.870000 89.308 -73.6354
3.950000 89.610 -74.4736
4.000000 89.795 -75.0381
4.060000 90.012 -75.7670
4.120000 90.228 -76.5507
4.180000 90.440 -77.3788
4.250000 90.683 -78.3865
4.310000 90.885 -79.2734
4.370000 91.080 -80.1702
4.440000 91.297 -81.2243
4.500000 91.478 -82.1513
4.550000 91.624 -82.9380
4.620000 91.820 -84.0546
4.680000 91.981 -85.0201
4.750000 92.160 -86.1487
4.820000 92.328 -87.2863
4.870000 92.442 -88.1133
4.940000 92.594 -89.2790
5.000000 92.717 -90.2743
5.080000 92.870 -91.5771
5.150000 92.995 -92.6792
5.220000 93.111 -93.7638
5.300000 93.231 -94.9819
5.380000 93.341 -96.1640
5.450000 93.431 -97.1578
5.520000 93.517 -98.1055
5.600000 93.605 -99.1416
5.700000 93.705 -100.3689
5.800000 93.798 -101.5172
5.900000 93.889 -102.5808
6.000000 93.975 -103.5499
6.080000 94.042 -104.2692
6.150000 94.100 -104.8681
6.220000 94.161 -105.4471
6.300000 94.234 -106.0734
6.400000 94.328 -106.7939
6.500000 94.424 -107.4856
6.600000 94.525 -108.1918
6.700000 94.632 -108.9018
6.800000 94.744 -109.6093
6.900000 94.857 -110.3440
7.000000 94.967 -111.1319
7.100000 95.079 -111.9618
7.200000 95.190 -112.8300
7.300000 95.293 -113.7383
7.400000 95.386 -114.6962
7.500000 95.472 -115.7070
7.620000 95.562 -116.9494
7.750000 95.637 -118.2909
7.880000 95.689 -119.6621
8.000000 95.718 -120.8926
8.120000 95.728 -122.0331
8.250000 95.715 -123.2071
8.380000 95.687 -124.2542
8.500000 95.651 -125.0553
8.620000 95.602 -125.7210
8.750000 95.549 -126.2798
8.850000 95.516 -126.5799
9.000000 95.468 -126.8105
9.120000 95.447 -126.8760
9.250000 95.453 -126.8570
9.380000 95.482 -126.7195
9.500000 95.529 -126.6023
9.620000 95.600 -126.5396
9.750000 95.701 -126.4937
9.880000 95.811 -126.5682
10.000000 95.918 -126.7841
10.150000 96.060 -127.2133
10.300000 96.190 -127.8327
10.440000 96.303 -128.6012
10.600000 96.416 -129.6360
10.750000 96.502 -130.7275
10.900000 96.570 -131.9297
11.060000 96.619 -133.2305
11.200000 96.642 -134.4035
11.380000 96.651 -135.8576
11.500000 96.642 -136.7755
11.720000 96.607 -138.3383
11.800000 96.592 -138.8512
12.060000 96.535 -140.3453
12.200000 96.510 -141.0517
12.410000 96.478 -141.9976
12.500000 96.469 -142.3833
12.650000 96.459 -142.9872
12.800000 96.454 -143.5751
13.150000 96.459 -144.9620
13.200000 96.461 -145.1638
13.400000 96.468 -145.9884
13.600000 96.472 -146.8086
13.800000 96.470 -147.6194
14.000000 96.463 -148.3758
14.300000 96.443 -149.3839
14.500000 96.430 -149.9362
14.750000 96.424 -150.5181
15.000000 96.436 -151.0031
15.250000 96.473 -151.4811
15.500000 96.526 -152.0257
15.750000 96.588 -152.6742
16.000000 96.643 -153.4592
16.250000 96.678 -154.3271
16.500000 96.689 -155.2237
16.750000 96.672 -156.0570
17.000000 96.639 -156.7317
17.250000 96.600 -157.2284
17.500000 96.567 -157.5304
17.750000 96.557 -157.7281
18.000000 96.570 -157.9013
18.250000 96.606 -158.1404
18.500000 96.651 -158.5301
18.750000 96.693 -159.0593
19.000000 96.723 -159.7155
19.250000 96.731 -160.4069
19.500000 96.722 -161.0670
19.750000 96.700 -161.6466
20.000000 96.677 -162.1152
20.299999 96.659 -162.5894
20.600000 96.659 -163.0446
20.900000 96.673 -163.5713
21.200001 96.688 -164.2242
21.400000 96.691 -164.7146
21.799999 96.675 -165.7389
22.000000 96.654 -166.2221
22.400000 96.601 -167.0379
22.700001 96.562 -167.5004
23.000000 96.535 -167.8661
23.299999 96.524 -168.1946
23.600000 96.528 -168.5371
24.000000 96.548 -169.0789
24.299999 96.564 -169.5714
24.700001 96.574 -170.3261
25.000000 96.564 -170.9119
25.400000 96.522 -171.6039
25.799999 96.462 -172.0508
26.200001 96.413 -172.2043
26.500000 96.403 -172.2054
26.900000 96.430 -172.2429
27.200001 96.470 -172.4267
27.600000 96.519 -172.9388
28.000000 96.535 -173.6336
28.500000 96.505 -174.4249
29.000000 96.466 -174.9475
29.500000 96.458 -175.4004
30.000000 96.464 -176.0637
30.400000 96.450 -176.7329
30.700001 96.423 -177.2294
31.100000 96.374 -177.7866
31.500000 96.329 -178.2185
32.000000 96.289 -178.6931
32.500000 96.256 -179.1866
33.000000 96.220 -179.6304
33.500000 96.193 -179.9402
34.000000 96.198 179.7819
34.500000 96.225 179.3201
35.000000 96.236 178.6153
35.500000 96.203 177.8665
36.000000 96.134 177.3427
36.500000 96.071 177.1190
37.000000 96.045 177.0053
37.500000 96.051 176.7415
38.200001 96.046 175.9919
38.700001 96.005 175.3995
39.500000 95.920 174.7605
40.000000 95.886 174.4559
40.599998 95.858 174.0008
41.200001 95.817 173.4874
41.799999 95.762 173.0753
42.500000 95.701 172.7904
43.099998 95.666 172.6430
43.700001 95.647 172.4750
44.400002 95.623 172.1442
45.000000 95.580 171.8126
45.500000 95.536 171.5949
46.200001 95.485 171.2324
46.799999 95.421 170.6528
47.500000 95.254 170.1117
48.200001 95.078 170.5279
48.700001 95.061 171.1599
49.400002 95.186 171.3042
50.000000 95.271 170.4308
50.799999 95.233 169.0962
51.500000 95.167 168.5228
52.200001 95.143 168.0814
53.000000 95.103 167.5291
53.799999 95.048 167.2926
54.500000 95.029 167.1936
55.200001 95.014 166.9653
56.000000 94.974 166.6492
57.000000 94.904 166.2872
58.000000 94.823 165.9794
59.000000 94.766 165.7074
60.000000 94.726 165.2520
60.799999 94.688 164.8853
61.500000 94.663 164.6188
62.200001 94.646 164.3230
63.000000 94.614 163.9521
64.000000 94.549 163.6529
65.000000 94.493 163.5699
66.000000 94.455 163.3974
67.000000 94.392 163.0372
68.000000 94.295 162.8107
69.000000 94.224 162.7984
70.000000 94.195 162.6401
71.000000 94.157 162.2686
72.000000 94.103 161.9699
73.000000 94.053 161.7373
74.000000 93.994 161.5352
75.000000 93.932 161.4277
76.199997 93.865 161.2729
77.500000 93.783 161.0872
78.800003 93.718 160.8787
80.000000 93.659 160.5332
81.199997 93.586 160.3181
82.500000 93.544 160.2943
83.800003 93.527 160.1531
85.000000 93.484 160.0251
86.199997 93.424 160.1139
87.500000 93.364 160.3150
88.500000 93.314 160.4423
90.000000 93.231 160.5368
91.199997 93.169 160.5592
92.500000 93.129 160.3087
93.800003 93.069 159.8057
95.000000 93.003 159.4255
96.199997 92.944 159.1710
97.500000 92.892 159.0089
98.800003 92.843 158.9054
100.000000 92.794 158.8550
101.500000 92.727 158.8369
103.000000 92.661 158.8488
104.400002 92.604 158.8242
106.000000 92.535 158.7984
107.500000 92.478 158.7873
109.000000 92.420 158.7237
110.599998 92.356 158.6674
112.000000 92.301 158.5932
113.800003 92.219 158.5532
115.000000 92.166 158.6095
117.199997 92.086 158.6498
118.000000 92.053 158.5938
120.599998 91.916 158.5580
122.000000 91.872 158.6838
124.099998 91.838 158.7039
125.000000 91.819 158.6590
126.500000 91.770 158.5996
128.000000 91.704 158.6501
131.500000 91.592 159.0616
132.000000 91.583 159.1076
134.000000 91.553 159.2165
136.000000 91.496 159.1550
138.000000 91.384 159.1992
140.000000 91.258 159.4752
143.000000 91.197 159.6646
145.000000 91.172 159.1584
147.500000 91.091 158.8229
150.000000 91.044 159.0825
152.500000 91.010 159.5219
155.000000 90.943 159.9577
157.500000 90.862 160.3435
160.000000 90.787 160.5148
162.500000 90.720 160.7000
165.000000 90.671 160.9723
167.500000 90.629 161.1896
170.000000 90.584 161.3229
172.500000 90.521 161.4688
175.000000 90.438 161.7650
177.500000 90.354 162.0584
180.000000 90.288 162.2081
182.500000 90.240 162.2799
185.000000 90.203 162.4290
187.500000 90.162 162.6795
190.000000 90.122 163.0046
192.500000 90.085 163.2789
195.000000 90.040 163.5054
197.500000 89.989 163.7153
200.000000 89.932 163.9213
203.000000 89.866 164.1920
206.000000 89.815 164.5003
209.000000 89.767 164.6325
212.000000 89.681 165.0380
214.000000 89.668 165.4382
218.000000 89.665 165.5331
220.000000 89.628 165.4605
224.000000 89.523 165.5790
227.000000 89.461 165.9877
230.000000 89.428 166.4616
233.000000 89.405 166.8858
236.000000 89.384 167.4573
240.000000 89.331 168.3314
243.000000 89.257 168.5959
247.000000 89.157 168.5818
250.000000 89.120 168.6257
254.000000 89.139 168.8486
258.000000 89.130 169.6679
262.000000 89.069 170.2239
265.000000 89.009 170.1672
269.000000 88.938 170.5000
272.000000 88.905 170.9210
276.000000 88.879 171.2657
280.000000 88.837 171.6724
285.000000 88.788 172.2682
290.000000 88.767 172.7700
295.000000 88.738 173.2548
300.000000 88.703 173.7479
304.000000 88.664 174.1690
307.000000 88.635 174.4722
311.000000 88.607 174.8073
315.000000 88.587 175.1666
320.000000 88.562 175.7022
325.000000 88.532 176.1895
330.000000 88.500 176.6927
335.000000 88.471 177.1782
340.000000 88.463 177.5542
345.000000 88.441 177.9666
350.000000 88.431 178.6071
355.000000 88.458 179.0204
360.000000 88.432 179.0472
365.000000 88.405 179.1351
370.000000 88.421 179.7255
375.000000 88.393 -179.1770
382.000000 88.266 -178.4031
387.000000 88.250 -178.0060
395.000000 88.206 -177.1994
400.000000 88.181 -176.7667
406.000000 88.162 -176.2244
412.000000 88.140 -175.6269
418.000000 88.120 -175.0669
425.000000 88.109 -174.4132
431.000000 88.088 -173.7699
437.000000 88.059 -173.1143
444.000000 88.030 -172.4299
450.000000 88.042 -171.8249
455.000000 88.083 -171.2377
462.000000 88.069 -170.4627
468.000000 87.981 -170.1576
475.000000 87.953 -169.8114
482.000000 87.958 -169.2237
487.000000 87.953 -168.8482
494.000000 87.949 -168.3220
500.000000 87.950 -167.8519
508.000000 87.957 -167.1123
515.000000 87.954 -166.4221
522.000000 87.943 -165.7605
530.000000 87.933 -165.0181
538.000000 87.924 -164.3367
545.000000 87.925 -163.7849
552.000000 87.926 -163.1853
560.000000 87.929 -162.4796
570.000000 87.950 -161.6377
580.000000 87.955 -160.7020
590.000000 87.957 -159.7038
600.000000 87.972 -158.8663
608.000000 87.991 -158.2845
615.000000 88.002 -157.6915
622.000000 88.003 -157.0900
630.000000 88.015 -156.5116
640.000000 88.034 -155.7588
650.000000 88.035 -154.8735
660.000000 88.049 -154.0630
670.000000 88.075 -153.2044
680.000000 88.100 -152.2144
690.000000 88.121 -151.3044
700.000000 88.143 -150.4492
710.000000 88.165 -149.6049
720.000000 88.191 -148.7779
730.000000 88.226 -147.9370
740.000000 88.267 -147.1222
750.000000 88.318 -146.2779
762.000000 88.414 -145.1349
775.000000 88.507 -144.1874
788.000000 88.517 -143.2780
800.000000 88.549 -142.3258
812.000000 88.608 -141.3980
825.000000 88.682 -140.4328
838.000000 88.769 -139.5460
850.000000 88.860 -138.7992
862.000000 88.952 -138.1403
875.000000 89.048 -137.6234
885.000000 89.103 -137.4425
900.000000 89.100 -137.3512
912.000000 89.006 -136.8451
925.000000 88.919 -135.4189
938.000000 88.953 -133.6382
950.000000 89.052 -132.1980
962.000000 89.160 -130.9381
975.000000 89.280 -129.7983
988.000000 89.402 -128.8363
1000.000000 89.511 -128.0668
1015.000000 89.643 -127.2199
1030.000000 89.774 -126.4208
1044.000000 89.897 -125.7268
1060.000000 90.037 -124.9785
1075.000000 90.163 -124.3007
1090.000000 90.289 -123.6751
1106.000000 90.435 -123.1180
1120.000000 90.574 -122.6660
1138.000000 90.757 -122.0092
1150.000000 90.873 -121.6121
1172.000000 91.088 -121.1379
1180.000000 91.164 -121.0252
1206.000000 91.398 -120.9239
1220.000000 91.508 -121.1978
1241.000000 91.584 -122.0292
1250.000000 91.560 -122.3641
1265.000000 91.439 -122.4315
1280.000000 91.285 -121.5060
1315.000000 91.272 -117.3471
1320.000000 91.315 -116.8393
1340.000000 91.522 -115.2107
1360.000000 91.719 -114.0520
1380.000000 91.901 -113.1926
1400.000000 92.089 -112.4860
1430.000000 92.359 -111.5861
1450.000000 92.519 -111.0284
1475.000000 92.705 -110.3466
1500.000000 92.881 -109.6758
1525.000000 93.053 -109.0354
1550.000000 93.220 -108.4112
1575.000000 93.380 -107.8052
1600.000000 93.534 -107.2016
1625.000000 93.689 -106.6048
1650.000000 93.846 -106.0483
1675.000000 94.001 -105.4954
1700.000000 94.150 -104.9441
1725.000000 94.300 -104.4104
1750.000000 94.456 -103.9145
1775.000000 94.613 -103.4511
1800.000000 94.765 -102.9929
1825.000000 94.914 -102.5590
1850.000000 95.062 -102.1550
1875.000000 95.210 -101.7614
1900.000000 95.359 -101.4045
1925.000000 95.512 -101.0976
1950.000000 95.660 -100.8109
1975.000000 95.802 -100.5321
2000.000000 95.941 -100.2727
2030.000000 96.107 -99.9976
2060.000000 96.268 -99.7302
2090.000000 96.428 -99.4595
2120.000000 96.594 -99.2180
2140.000000 96.709 -99.0653
2180.000000 96.943 -98.7931
2200.000000 97.061 -98.7067
2240.000000 97.300 -98.7086
2270.000000 97.471 -98.8544
2300.000000 97.629 -99.1014
2330.000000 97.773 -99.4311
2360.000000 97.898 -99.7830
2400.000000 98.038 -100.2533
2430.000000 98.131 -100.6112
2470.000000 98.243 -101.0730
2500.000000 98.317 -101.3987
2540.000000 98.397 -101.7655
2580.000000 98.466 -102.0747
2620.000000 98.531 -102.3293
2650.000000 98.578 -102.4946
2690.000000 98.634 -102.7070
2720.000000 98.674 -102.8875
2760.000000 98.724 -103.1911
2800.000000 98.758 -103.5070
2850.000000 98.776 -103.8758
2900.000000 98.774 -104.1664
2950.000000 98.753 -104.3306
3000.000000 98.713 -104.3390
3040.000000 98.678 -104.2571
3070.000000 98.655 -104.1474
3110.000000 98.629 -103.9347
3150.000000 98.608 -103.6589
3200.000000 98.586 -103.2149
3250.000000 98.570 -102.6817
3300.000000 98.563 -102.0854
3350.000000 98.569 -101.4598
3400.000000 98.596 -100.8755
3450.000000 98.644 -100.3603
3500.000000 98.704 -99.9499
3550.000000 98.757 -99.6012
3600.000000 98.804 -99.3030
3650.000000 98.852 -99.0563
3700.000000 98.900 -98.8478
3750.000000 98.943 -98.6950
3820.000000 98.982 -98.5617
3870.000000 98.995 -98.5428
3950.000000 98.973 -98.5278
4000.000000 98.925 -98.4102
4060.000000 98.855 -98.0574
4120.000000 98.801 -97.4625
4180.000000 98.773 -96.6929
4250.000000 98.770 -95.7563
4310.000000 98.804 -95.1030
4370.000000 98.863 -94.6641
4440.000000 98.925 -94.4001
4500.000000 98.953 -94.3574
4550.000000 98.961 -94.4569
4620.000000 98.955 -94.7977
4680.000000 98.925 -95.2249
4750.000000 98.851 -95.8288
4820.000000 98.731 -96.4719
4870.000000 98.616 -96.9140
4940.000000 98.411 -97.4411
5000.000000 98.200 -97.7488
5080.000000 97.886 -97.9018
5150.000000 97.594 -97.7627
5220.000000 97.286 -97.3599
5300.000000 96.915 -96.5859
5380.000000 96.537 -95.5093
5450.000000 96.219 -94.3651
5520.000000 95.915 -93.0544
5600.000000 95.579 -91.3572
5700.000000 95.171 -88.9632
5800.000000 94.774 -86.2509
5900.000000 94.381 -83.0962
6000.000000 94.016 -79.3428
6080.000000 93.787 -75.8699
6150.000000 93.695 -72.5305
6220.000000 93.734 -69.6165
6300.000000 93.784 -67.3374
6400.000000 93.702 -64.7431
6500.000000 93.584 -61.5549
6600.000000 93.519 -58.0031
6700.000000 93.515 -54.3259
6800.000000 93.574 -50.6353
6900.000000 93.724 -47.0204
7000.000000 93.966 -43.5481
7100.000000 94.279 -40.2818
7200.000000 94.658 -37.3184
7300.000000 95.102 -34.7851
7400.000000 95.605 -32.8115
7500.000000 96.162 -31.5368
7620.000000 96.897 -31.1773
7750.000000 97.702 -32.5936
7880.000000 98.311 -36.1879
8000.000000 98.581 -41.3099
8120.000000 98.477 -47.3863
8250.000000 97.908 -53.5577
8380.000000 96.948 -57.8458
8500.000000 95.865 -59.5459
8620.000000 94.736 -59.2104
8750.000000 93.564 -57.0343
8850.000000 92.730 -54.4172
9000.000000 91.615 -49.4425
9120.000000 90.836 -44.8177
9250.000000 90.097 -39.3537
9380.000000 89.462 -33.5372
9500.000000 88.972 -27.9384
9620.000000 88.579 -22.1909
9750.000000 88.262 -15.8406
9880.000000 88.047 -9.4029
10000.000000 87.932 -3.4428
10150.000000 87.906 3.9368
10300.000000 88.017 11.0925
10440.000000 88.235 17.4205
10600.000000 88.594 24.2104
10750.000000 89.054 30.5086
10900.000000 89.769 36.8838
11060.000000 90.925 42.6943
11200.000000 92.227 45.7378
11380.000000 94.127 45.1157
11500.000000 95.316 40.7711
11720.000000 96.576 24.0952
11800.000000 96.581 16.3804
12060.000000 94.894 -4.6628
12200.000000 93.291 -10.3973
12410.000000 90.746 -12.8506
12500.000000 89.727 -12.5798
12650.000000 88.159 -11.3530
12800.000000 86.700 -9.7031
13150.000000 83.132 -3.6185
13200.000000 82.563 -2.1076
13400.000000 80.178 6.8434
13600.000000 77.911 20.7652
13800.000000 76.265 38.0101
14000.000000 75.482 55.7944
14300.000000 75.488 79.7350
14500.000000 75.937 93.3449
14750.000000 76.812 107.9611
15000.000000 77.975 120.0895
15250.000000 79.412 129.6290
15500.000000 81.154 136.2035
15750.000000 83.203 139.0762
16000.000000 85.403 136.1347
16250.000000 87.122 124.2479
16500.000000 87.517 105.1167
16750.000000 86.479 87.2642
17000.000000 84.645 73.9998
17250.000000 82.324 64.0841
17500.000000 79.510 58.0704
17750.000000 76.257 57.3342
18000.000000 72.720 63.2857
18250.000000 69.285 76.3079
18500.000000 66.885 92.5106
18750.000000 66.032 104.4964
19000.000000 65.535 110.4926
19250.000000 64.462 115.5648
19500.000000 62.767 123.3045
19750.000000 60.709 133.9329
20000.000000 58.502 147.1792
20300.000000 55.958 165.3361
20600.000000 54.105 167.3822
20900.000000 53.140 2.4782
21200.000000 52.462 48.6608
21400.000000 51.812 -73.3538
21800.000000 49.564 -107.8438
22000.000000 48.004 72.6328
22400.000000 46.464 81.1602
22700.000000 50.517 9.1680
23000.000000 56.248 -103.8281
23300.000000 60.525 -34.9375
23600.000000 62.867 16.9375
24000.000000 63.702 117.5156
