* Measurement data measured by REW V5.20.13
* Source: Headset (DS by VECLAN.COM), MICROPHONE (Master Volume), L, volume: 0.720. Timing signal peak level -14.2 dBFS, measurement signal peak level -14.1 dBFS
* Format: 2M Log Swept Sine, 1 sweep at -12.0 dBFS using an acoustic timing reference
* Dated: Feb 16, 2024 12:38:48 AM
* REW Settings:
*  C-weighting compensation: Off
*  Target level: 75.0 dB
* Note: ; Delay -0.0681 ms (-23 mm, -0.92 in) using estimated IR delay relative to Acoustic reference played from HEADPHONE L with no timing offset
* Measurement: Simgot EA500 Red L
* Smoothing: 1/24 octave
* Frequency Step: 1/48 octave
* Start Frequency: 1.000 Hz
*
* Freq(Hz) SPL(dB) Phase(degrees)
1.000000 67.481 -10.9561
1.015000 67.766 -12.0257
1.030000 68.047 -13.0563
1.044000 68.305 -13.9794
1.060000 68.592 -14.9837
1.075000 68.855 -15.8717
1.090000 69.110 -16.7035
1.106000 69.373 -17.5247
1.120000 69.602 -18.1910
1.138000 69.895 -18.9818
1.150000 70.090 -19.4705
1.172000 70.446 -20.2937
1.180000 70.575 -20.5714
1.206000 70.990 -21.4031
1.220000 71.212 -21.8109
1.241000 71.541 -22.3778
1.250000 71.681 -22.6064
1.265000 71.912 -22.9712
1.280000 72.140 -23.3188
1.315000 72.661 -24.0832
1.320000 72.734 -24.1890
1.340000 73.022 -24.6090
1.360000 73.304 -25.0303
1.380000 73.578 -25.4613
1.400000 73.845 -25.9106
1.430000 74.229 -26.6374
1.450000 74.474 -27.1696
1.475000 74.766 -27.8978
1.500000 75.043 -28.6572
1.525000 75.304 -29.4337
1.550000 75.551 -30.2235
1.575000 75.786 -31.0227
1.600000 76.010 -31.8276
1.625000 76.224 -32.6344
1.650000 76.429 -33.4391
1.675000 76.628 -34.2381
1.700000 76.820 -35.0275
1.725000 77.007 -35.8036
1.750000 77.192 -36.5624
1.775000 77.374 -37.3002
1.800000 77.556 -38.0132
1.825000 77.739 -38.6976
1.850000 77.920 -39.3510
1.875000 78.096 -39.9765
1.900000 78.265 -40.5775
1.925000 78.429 -41.1571
1.950000 78.589 -41.7183
1.975000 78.744 -42.2645
2.000000 78.895 -42.7985
2.030000 79.073 -43.4280
2.060000 79.248 -44.0502
2.090000 79.420 -44.6705
2.120000 79.591 -45.2943
2.140000 79.705 -45.7148
2.180000 79.933 -46.5743
2.200000 80.049 -47.0164
2.240000 80.279 -47.9122
2.270000 80.450 -48.5881
2.300000 80.620 -49.2665
2.330000 80.788 -49.9464
2.360000 80.954 -50.6268
2.400000 81.172 -51.5332
2.430000 81.333 -52.2110
2.470000 81.543 -53.1104
2.500000 81.698 -53.7804
2.540000 81.899 -54.6658
2.580000 82.094 -55.5412
2.620000 82.283 -56.4146
2.650000 82.422 -57.0686
2.690000 82.602 -57.9374
2.720000 82.734 -58.5853
2.760000 82.907 -59.4426
2.800000 83.075 -60.2902
2.850000 83.279 -61.3327
2.900000 83.479 -62.3523
2.950000 83.673 -63.3447
3.000000 83.861 -64.3100
3.040000 84.006 -65.0652
3.070000 84.113 -65.6230
3.110000 84.251 -66.3569
3.150000 84.387 -67.0815
3.200000 84.552 -67.9771
3.250000 84.712 -68.8653
3.300000 84.868 -69.7499
3.350000 85.019 -70.6359
3.400000 85.164 -71.5207
3.450000 85.305 -72.3981
3.500000 85.441 -73.2621
3.550000 85.573 -74.1064
3.600000 85.702 -74.9249
3.650000 85.827 -75.7116
3.700000 85.950 -76.4620
3.750000 86.068 -77.1799
3.820000 86.227 -78.1392
3.870000 86.337 -78.7983
3.950000 86.507 -79.8208
4.000000 86.612 -80.4472
4.060000 86.736 -81.1920
4.120000 86.856 -81.9224
4.180000 86.973 -82.6351
4.250000 87.107 -83.4417
4.310000 87.219 -84.1094
4.370000 87.331 -84.7532
4.440000 87.460 -85.4689
4.500000 87.568 -86.0483
4.550000 87.658 -86.5119
4.620000 87.782 -87.1401
4.680000 87.887 -87.6670
4.750000 88.009 -88.2781
4.820000 88.131 -88.8865
4.870000 88.218 -89.3127
4.940000 88.339 -89.8998
5.000000 88.442 -90.3960
5.080000 88.578 -91.0509
5.150000 88.696 -91.6201
5.220000 88.813 -92.1811
5.300000 88.946 -92.8133
5.380000 89.077 -93.4411
5.450000 89.190 -93.9909
5.520000 89.301 -94.5443
5.600000 89.425 -95.1789
5.700000 89.578 -95.9725
5.800000 89.727 -96.7650
5.900000 89.869 -97.5557
6.000000 90.007 -98.3491
6.080000 90.114 -98.9818
6.150000 90.205 -99.5306
6.220000 90.292 -100.0718
6.300000 90.389 -100.6824
6.400000 90.506 -101.4374
6.500000 90.617 -102.1777
6.600000 90.724 -102.8976
6.700000 90.826 -103.5983
6.800000 90.924 -104.2809
6.900000 91.018 -104.9416
7.000000 91.110 -105.5772
7.100000 91.199 -106.1867
7.200000 91.286 -106.7741
7.300000 91.371 -107.3435
7.400000 91.455 -107.8959
7.500000 91.538 -108.4284
7.620000 91.636 -109.0478
7.750000 91.741 -109.7026
7.880000 91.844 -110.3353
8.000000 91.939 -110.9072
8.120000 92.032 -111.4755
8.250000 92.132 -112.0830
8.380000 92.231 -112.6845
8.500000 92.319 -113.2372
8.620000 92.405 -113.7870
8.750000 92.495 -114.3766
8.850000 92.563 -114.8252
9.000000 92.660 -115.4915
9.120000 92.736 -116.0153
9.250000 92.816 -116.5708
9.380000 92.895 -117.1152
9.500000 92.964 -117.6079
9.620000 93.029 -118.0906
9.750000 93.097 -118.6026
9.880000 93.157 -119.1050
10.000000 93.204 -119.5614
10.150000 93.253 -120.1205
10.300000 93.296 -120.6638
10.440000 93.327 -121.1549
10.600000 93.359 -121.7030
10.750000 93.390 -122.2069
10.900000 93.420 -122.7013
11.060000 93.452 -123.2274
11.200000 93.480 -123.6871
11.380000 93.516 -124.2681
11.500000 93.539 -124.6478
11.720000 93.579 -125.3282
11.800000 93.595 -125.5694
12.060000 93.645 -126.3345
12.200000 93.674 -126.7402
12.410000 93.719 -127.3390
12.500000 93.738 -127.5917
12.650000 93.769 -128.0074
12.800000 93.799 -128.4172
13.150000 93.868 -129.3526
13.200000 93.877 -129.4838
13.400000 93.916 -130.0033
13.600000 93.955 -130.5116
13.800000 93.994 -131.0072
14.000000 94.033 -131.4933
14.300000 94.090 -132.2056
14.500000 94.126 -132.6685
14.750000 94.171 -133.2352
15.000000 94.217 -133.7900
15.250000 94.265 -134.3391
15.500000 94.313 -134.8783
15.750000 94.361 -135.4065
16.000000 94.406 -135.9226
16.250000 94.451 -136.4342
16.500000 94.495 -136.9439
16.750000 94.538 -137.4550
17.000000 94.579 -137.9643
17.250000 94.618 -138.4659
17.500000 94.653 -138.9518
17.750000 94.686 -139.4080
18.000000 94.719 -139.8328
18.250000 94.753 -140.2244
18.500000 94.793 -140.5990
18.750000 94.838 -140.9769
19.000000 94.889 -141.3770
19.250000 94.943 -141.8267
19.500000 94.994 -142.3244
19.750000 95.039 -142.8667
20.000000 95.074 -143.4252
20.299999 95.101 -144.0694
20.600000 95.117 -144.6402
20.900000 95.129 -145.1060
21.200001 95.145 -145.4687
21.400000 95.163 -145.6778
21.799999 95.214 -146.0836
22.000000 95.245 -146.3122
22.400000 95.312 -146.8624
22.700001 95.356 -147.3426
23.000000 95.389 -147.8384
23.299999 95.413 -148.3054
23.600000 95.433 -148.7196
24.000000 95.460 -149.1879
24.299999 95.487 -149.5072
24.700001 95.531 -149.9470
25.000000 95.565 -150.3129
25.400000 95.603 -150.8430
25.799999 95.629 -151.3696
26.200001 95.646 -151.8349
26.500000 95.660 -152.1315
26.900000 95.685 -152.4799
27.200001 95.711 -152.7411
27.600000 95.752 -153.1360
28.000000 95.793 -153.6068
28.500000 95.830 -154.2623
29.000000 95.851 -154.8929
29.500000 95.865 -155.4360
30.000000 95.882 -155.9126
30.400000 95.900 -156.2877
30.700001 95.915 -156.5779
31.100000 95.932 -156.9729
31.500000 95.948 -157.3639
32.000000 95.965 -157.8355
32.500000 95.982 -158.2974
33.000000 95.995 -158.7560
33.500000 96.004 -159.1895
34.000000 96.014 -159.5795
34.500000 96.031 -159.9628
35.000000 96.051 -160.4015
35.500000 96.060 -160.8968
36.000000 96.052 -161.3531
36.500000 96.038 -161.6749
37.000000 96.039 -161.8849
37.500000 96.064 -162.1160
38.200001 96.112 -162.6562
38.700001 96.131 -163.1410
39.500000 96.143 -163.8277
40.000000 96.154 -164.1962
40.599998 96.170 -164.6393
41.200001 96.183 -165.0625
41.799999 96.197 -165.4218
42.500000 96.226 -165.8227
43.099998 96.254 -166.2326
43.700001 96.272 -166.6774
44.400002 96.278 -167.1542
45.000000 96.279 -167.5067
45.500000 96.280 -167.7768
46.200001 96.284 -168.1382
46.799999 96.289 -168.4518
47.500000 96.297 -168.8453
48.200001 96.302 -169.2564
48.700001 96.304 -169.5423
49.400002 96.308 -169.9237
50.000000 96.313 -170.2442
50.799999 96.318 -170.6728
51.500000 96.320 -171.0265
52.200001 96.322 -171.3445
53.000000 96.326 -171.7092
53.799999 96.325 -172.1052
54.500000 96.315 -172.4415
55.200001 96.303 -172.7648
56.000000 96.284 -173.1211
57.000000 96.265 -173.4935
58.000000 96.261 -173.9247
59.000000 96.247 -174.3382
60.000000 96.266 -174.6223
60.799999 96.300 -175.0546
61.500000 96.304 -175.5194
62.200001 96.289 -175.8435
63.000000 96.283 -176.0541
64.000000 96.291 -176.3398
65.000000 96.291 -176.6582
66.000000 96.289 -177.0053
67.000000 96.276 -177.4334
68.000000 96.250 -177.8865
69.000000 96.217 -178.3555
70.000000 96.176 -178.8117
71.000000 96.137 -179.1477
72.000000 96.124 -179.3843
73.000000 96.134 -179.7362
74.000000 96.123 179.8650
75.000000 96.105 179.6628
76.199997 96.109 179.5013
77.500000 96.111 179.1846
78.800003 96.092 178.8936
80.000000 96.084 178.6490
81.199997 96.077 178.2821
82.500000 96.054 177.8861
83.800003 96.030 177.5392
85.000000 96.002 177.2595
86.199997 95.974 177.0522
87.500000 95.955 176.8285
88.500000 95.943 176.6063
90.000000 95.923 176.2082
91.199997 95.907 175.8627
92.500000 95.888 175.4900
93.800003 95.868 175.1656
95.000000 95.851 174.8972
96.199997 95.829 174.6498
97.500000 95.803 174.4463
98.800003 95.783 174.2433
100.000000 95.763 174.0021
101.500000 95.726 173.6998
103.000000 95.689 173.4778
104.400002 95.664 173.2575
106.000000 95.633 172.9542
107.500000 95.599 172.6795
109.000000 95.568 172.4260
110.599998 95.535 172.1487
112.000000 95.502 171.9265
113.800003 95.463 171.7041
115.000000 95.440 171.5592
117.199997 95.394 171.2790
118.000000 95.374 171.1863
120.599998 95.311 170.9314
122.000000 95.278 170.7484
124.099998 95.230 170.4607
125.000000 95.212 170.3207
126.500000 95.184 170.0960
128.000000 95.158 169.9244
131.500000 95.106 169.5739
132.000000 95.097 169.5216
134.000000 95.056 169.3105
136.000000 95.014 169.0908
138.000000 94.971 168.8801
140.000000 94.930 168.7013
143.000000 94.871 168.4392
145.000000 94.832 168.2742
147.500000 94.785 168.0938
150.000000 94.740 167.9698
152.500000 94.695 167.8312
155.000000 94.642 167.6307
157.500000 94.590 167.4161
160.000000 94.542 167.2628
162.500000 94.492 167.2385
165.000000 94.447 167.1996
167.500000 94.401 167.0279
170.000000 94.344 166.8905
172.500000 94.280 166.8583
175.000000 94.221 166.7211
177.500000 94.163 166.4889
180.000000 94.106 166.4688
182.500000 94.053 166.6674
185.000000 93.984 166.9044
187.500000 93.929 167.2645
190.000000 93.930 167.5038
192.500000 93.939 167.3261
195.000000 93.906 166.8369
197.500000 93.833 166.5026
200.000000 93.776 166.5157
203.000000 93.731 166.6779
206.000000 93.707 166.8209
209.000000 93.691 166.8700
212.000000 93.644 166.8025
214.000000 93.592 166.7160
218.000000 93.508 166.5491
220.000000 93.478 166.5226
224.000000 93.399 166.6396
227.000000 93.332 166.7555
230.000000 93.282 166.8151
233.000000 93.238 166.8505
236.000000 93.182 166.9203
240.000000 93.103 167.0300
243.000000 93.057 167.0640
247.000000 93.005 167.1413
250.000000 92.962 167.2156
254.000000 92.896 167.3123
258.000000 92.833 167.4803
262.000000 92.777 167.6496
265.000000 92.733 167.7315
269.000000 92.674 167.8191
272.000000 92.633 167.9026
276.000000 92.589 168.0818
280.000000 92.552 168.3384
285.000000 92.484 168.5734
290.000000 92.410 168.7210
295.000000 92.343 168.9489
300.000000 92.283 169.2045
304.000000 92.235 169.4101
307.000000 92.196 169.5692
311.000000 92.147 169.7751
315.000000 92.101 169.9762
320.000000 92.047 170.2347
325.000000 91.997 170.5010
330.000000 91.944 170.7824
335.000000 91.892 171.0767
340.000000 91.842 171.3707
345.000000 91.791 171.6716
350.000000 91.738 171.9816
355.000000 91.686 172.3010
360.000000 91.638 172.6201
365.000000 91.591 172.9319
370.000000 91.544 173.2509
375.000000 91.498 173.5797
382.000000 91.435 174.0508
387.000000 91.389 174.3949
395.000000 91.318 174.9421
400.000000 91.276 175.2928
406.000000 91.227 175.7209
412.000000 91.179 176.1525
418.000000 91.130 176.5806
425.000000 91.074 177.0743
431.000000 91.028 177.5059
437.000000 90.983 177.9396
444.000000 90.933 178.4505
450.000000 90.892 178.8964
455.000000 90.859 179.2722
462.000000 90.813 179.7934
468.000000 90.774 -179.7651
475.000000 90.728 -179.2304
482.000000 90.687 -178.6854
487.000000 90.658 -178.3013
494.000000 90.618 -177.7581
500.000000 90.587 -177.2869
508.000000 90.551 -176.6671
515.000000 90.518 -176.1278
522.000000 90.486 -175.5799
530.000000 90.455 -174.9269
538.000000 90.425 -174.2836
545.000000 90.398 -173.7441
552.000000 90.374 -173.1924
560.000000 90.345 -172.5357
570.000000 90.310 -171.7142
580.000000 90.282 -170.9103
590.000000 90.257 -170.0995
600.000000 90.231 -169.2701
608.000000 90.212 -168.6071
615.000000 90.194 -168.0314
622.000000 90.177 -167.4531
630.000000 90.159 -166.7832
640.000000 90.139 -165.9444
650.000000 90.122 -165.1075
660.000000 90.106 -164.2697
670.000000 90.093 -163.4228
680.000000 90.083 -162.5798
690.000000 90.077 -161.7313
700.000000 90.073 -160.8754
710.000000 90.072 -160.0165
720.000000 90.073 -159.1638
730.000000 90.077 -158.3108
740.000000 90.084 -157.4537
750.000000 90.092 -156.5945
762.000000 90.104 -155.5622
775.000000 90.120 -154.4454
788.000000 90.141 -153.3319
800.000000 90.165 -152.3145
812.000000 90.192 -151.2940
825.000000 90.226 -150.1902
838.000000 90.266 -149.0923
850.000000 90.306 -148.0937
862.000000 90.349 -147.1076
875.000000 90.399 -146.0481
885.000000 90.441 -145.2391
900.000000 90.509 -144.0515
912.000000 90.569 -143.1178
925.000000 90.641 -142.1361
938.000000 90.716 -141.2000
950.000000 90.786 -140.3352
962.000000 90.859 -139.4782
975.000000 90.938 -138.6087
988.000000 91.021 -137.7819
1000.000000 91.097 -137.0232
1015.000000 91.192 -136.1032
1030.000000 91.289 -135.2336
1044.000000 91.382 -134.4604
1060.000000 91.487 -133.6063
1075.000000 91.586 -132.8437
1090.000000 91.690 -132.1238
1106.000000 91.809 -131.3888
1120.000000 91.917 -130.7711
1138.000000 92.053 -130.0181
1150.000000 92.143 -129.5358
1172.000000 92.304 -128.6860
1180.000000 92.362 -128.3863
1206.000000 92.549 -127.4460
1220.000000 92.651 -126.9593
1241.000000 92.805 -126.2556
1250.000000 92.871 -125.9594
1265.000000 92.978 -125.4705
1280.000000 93.084 -124.9868
1315.000000 93.328 -123.8849
1320.000000 93.362 -123.7301
1340.000000 93.491 -123.1156
1360.000000 93.601 -122.5073
1380.000000 93.711 -121.9102
1400.000000 93.836 -121.3249
1430.000000 94.031 -120.4618
1450.000000 94.163 -119.9028
1475.000000 94.328 -119.2274
1500.000000 94.494 -118.5752
1525.000000 94.661 -117.9549
1550.000000 94.823 -117.3732
1575.000000 94.983 -116.8217
1600.000000 95.143 -116.3091
1625.000000 95.301 -115.8282
1650.000000 95.457 -115.3810
1675.000000 95.612 -114.9650
1700.000000 95.766 -114.5741
1725.000000 95.917 -114.2109
1750.000000 96.067 -113.8732
1775.000000 96.215 -113.5585
1800.000000 96.360 -113.2623
1825.000000 96.505 -112.9943
1850.000000 96.650 -112.7510
1875.000000 96.794 -112.5273
1900.000000 96.937 -112.3323
1925.000000 97.081 -112.1720
1950.000000 97.222 -112.0381
1975.000000 97.362 -111.9326
2000.000000 97.501 -111.8615
2030.000000 97.666 -111.8220
2060.000000 97.828 -111.8271
2090.000000 97.987 -111.8841
2120.000000 98.142 -111.9967
2140.000000 98.243 -112.0995
2180.000000 98.438 -112.3724
2200.000000 98.531 -112.5466
2240.000000 98.704 -112.9573
2270.000000 98.824 -113.3121
2300.000000 98.937 -113.7120
2330.000000 99.041 -114.1507
2360.000000 99.135 -114.6181
2400.000000 99.245 -115.2743
2430.000000 99.316 -115.7878
2470.000000 99.396 -116.4932
2500.000000 99.445 -117.0313
2540.000000 99.496 -117.7643
2580.000000 99.529 -118.5124
2620.000000 99.542 -119.2550
2650.000000 99.538 -119.7953
2690.000000 99.517 -120.4738
2720.000000 99.488 -120.9439
2760.000000 99.435 -121.5068
2800.000000 99.366 -121.9913
2850.000000 99.264 -122.4792
2900.000000 99.147 -122.8318
2950.000000 99.018 -123.0463
3000.000000 98.879 -123.1170
3040.000000 98.765 -123.0763
3070.000000 98.678 -122.9906
3110.000000 98.561 -122.8043
3150.000000 98.444 -122.5412
3200.000000 98.299 -122.1169
3250.000000 98.157 -121.5929
3300.000000 98.016 -120.9757
3350.000000 97.879 -120.2679
3400.000000 97.749 -119.4790
3450.000000 97.628 -118.6089
3500.000000 97.518 -117.6643
3550.000000 97.416 -116.6580
3600.000000 97.322 -115.5962
3650.000000 97.235 -114.4801
3700.000000 97.155 -113.3188
3750.000000 97.085 -112.1232
3820.000000 96.998 -110.3947
3870.000000 96.943 -109.1294
3950.000000 96.868 -107.0675
4000.000000 96.830 -105.7589
4060.000000 96.794 -104.1788
4120.000000 96.769 -102.5922
4180.000000 96.754 -100.9986
4250.000000 96.748 -99.1350
4310.000000 96.750 -97.5345
4370.000000 96.755 -95.9280
4440.000000 96.771 -94.0574
4500.000000 96.800 -92.4806
4550.000000 96.835 -91.1959
4620.000000 96.897 -89.4533
4680.000000 96.965 -88.0301
4750.000000 97.060 -86.4762
4820.000000 97.165 -85.0543
4870.000000 97.245 -84.1286
4940.000000 97.361 -82.9645
5000.000000 97.461 -82.0816
5080.000000 97.590 -81.0631
5150.000000 97.696 -80.3243
5220.000000 97.792 -79.7303
5300.000000 97.879 -79.1978
5380.000000 97.935 -78.7287
5450.000000 97.967 -78.2543
5520.000000 98.008 -77.7128
5600.000000 98.073 -77.2637
5700.000000 98.117 -77.0913
5800.000000 98.090 -76.9989
5900.000000 98.008 -76.7869
6000.000000 97.885 -76.3707
6080.000000 97.766 -75.8368
6150.000000 97.656 -75.2086
6220.000000 97.548 -74.4408
6300.000000 97.434 -73.4251
6400.000000 97.304 -72.0021
6500.000000 97.191 -70.4597
6600.000000 97.095 -68.8273
6700.000000 97.016 -67.1123
6800.000000 96.963 -65.3196
6900.000000 96.958 -63.4537
7000.000000 97.007 -61.5336
7100.000000 97.107 -59.6118
7200.000000 97.259 -57.7939
7300.000000 97.460 -56.2161
7400.000000 97.702 -54.9923
7500.000000 97.976 -54.2128
7620.000000 98.344 -53.9861
7750.000000 98.747 -54.7739
7880.000000 99.016 -56.7342
8000.000000 99.101 -59.5072
8120.000000 99.003 -62.9203
8250.000000 98.658 -66.8091
8380.000000 98.070 -70.2606
8500.000000 97.345 -72.6011
8620.000000 96.493 -73.8885
8750.000000 95.482 -74.0204
8850.000000 94.679 -73.2814
9000.000000 93.489 -70.9970
9120.000000 92.574 -68.3233
9250.000000 91.633 -64.7388
9380.000000 90.749 -60.5735
9500.000000 89.988 -56.3189
9620.000000 89.284 -51.7484
9750.000000 88.584 -46.4987
9880.000000 87.945 -40.9777
10000.000000 87.402 -35.6578
10150.000000 86.782 -28.7154
10300.000000 86.228 -21.4519
10440.000000 85.776 -14.4079
10600.000000 85.346 -6.0991
10750.000000 85.028 1.8762
10900.000000 84.796 9.9741
11060.000000 84.647 18.6890
11200.000000 84.598 26.3336
11380.000000 84.640 36.1474
11500.000000 84.735 42.6704
11720.000000 85.052 54.5875
11800.000000 85.216 58.9044
12060.000000 85.957 72.8255
12200.000000 86.503 80.2141
12410.000000 87.565 91.0351
12500.000000 88.136 95.5108
12650.000000 89.288 102.5823
12800.000000 90.750 108.8022
13150.000000 95.318 114.7398
13200.000000 96.005 113.7905
13400.000000 98.297 103.4717
13600.000000 99.258 84.8012
13800.000000 98.656 66.5514
14000.000000 96.995 55.9130
14300.000000 94.116 53.4406
14500.000000 92.564 56.8364
14750.000000 91.193 63.5233
15000.000000 90.404 71.1476
15250.000000 90.141 78.4189
15500.000000 90.359 84.0855
15750.000000 90.891 86.7657
16000.000000 91.378 85.4189
16250.000000 91.420 80.4530
16500.000000 90.754 74.5485
16750.000000 89.428 71.1121
17000.000000 87.743 71.7479
17250.000000 86.039 76.0314
17500.000000 84.549 82.7972
17750.000000 83.367 90.9646
18000.000000 82.505 99.6823
18250.000000 81.946 108.2319
18500.000000 81.653 115.9094
18750.000000 81.539 121.9628
19000.000000 81.446 125.7335
19250.000000 81.134 127.1089
19500.000000 80.373 127.0870
19750.000000 79.070 127.6893
20000.000000 77.240 130.8876
20300.000000 74.577 139.3248
20600.000000 71.880 152.1756
20900.000000 69.468 167.6187
21200.000000 67.451 -176.6686
21400.000000 66.274 -167.4578
21800.000000 63.656 -166.9923
22000.000000 61.611 136.4571
22400.000000 54.791 -5.5730
22700.000000 47.447 -149.1777
23000.000000 39.257 150.5977
23300.000000 33.486 -146.0430
23600.000000 31.969 -107.1953
24000.000000 31.439 133.9766
