* Measurement data measured by REW V5.20.13
* Source: Headset (DS by VECLAN.COM), MICROPHONE (Master Volume), L, volume: 1.000
* Format: 2M Log Swept Sine, 1 sweep at -12.0 dBFS with no timing reference
* Dated: May 18, 2023 5:19:36 PM
* REW Settings:
*  C-weighting compensation: Off
*  Target level: 75.0 dB
* Note: ; 
* Measurement: SSR L
* Smoothing: 1/24 octave
* Frequency Step: 1/48 octave
* Start Frequency: 1.000 Hz
*
* Freq(Hz) SPL(dB) Phase(degrees)
1.000000 70.856 -24.8168
1.015000 70.946 -26.0762
1.030000 71.036 -27.3390
1.044000 71.120 -28.5186
1.060000 71.215 -29.8648
1.075000 71.303 -31.1225
1.090000 71.389 -32.3733
1.106000 71.481 -33.7031
1.120000 71.563 -34.8959
1.138000 71.672 -36.4746
1.150000 71.747 -37.5524
1.172000 71.888 -39.5737
1.180000 71.940 -40.3213
1.206000 72.113 -42.7885
1.220000 72.208 -44.1356
1.241000 72.350 -46.1722
1.250000 72.411 -47.0487
1.265000 72.514 -48.5114
1.280000 72.615 -49.9731
1.315000 72.849 -53.3587
1.320000 72.882 -53.8375
1.340000 73.011 -55.7345
1.360000 73.137 -57.5960
1.380000 73.258 -59.4132
1.400000 73.374 -61.1770
1.430000 73.535 -63.7029
1.450000 73.634 -65.2939
1.475000 73.746 -67.1691
1.500000 73.849 -68.9678
1.525000 73.944 -70.7047
1.550000 74.032 -72.3810
1.575000 74.113 -73.9982
1.600000 74.188 -75.5574
1.625000 74.257 -77.0601
1.650000 74.321 -78.5074
1.675000 74.380 -79.9007
1.700000 74.435 -81.2413
1.725000 74.486 -82.5305
1.750000 74.534 -83.7696
1.775000 74.580 -84.9599
1.800000 74.624 -86.1027
1.825000 74.666 -87.1993
1.850000 74.706 -88.2453
1.875000 74.741 -89.2292
1.900000 74.771 -90.1533
1.925000 74.798 -91.0204
1.950000 74.820 -91.8333
1.975000 74.839 -92.5949
2.000000 74.855 -93.3081
2.030000 74.870 -94.1040
2.060000 74.883 -94.8392
2.090000 74.892 -95.5185
2.120000 74.899 -96.1470
2.140000 74.903 -96.5401
2.180000 74.910 -97.2709
2.200000 74.913 -97.6115
2.240000 74.915 -98.2372
2.270000 74.911 -98.6525
2.300000 74.903 -99.0188
2.330000 74.893 -99.3335
2.360000 74.881 -99.5939
2.400000 74.862 -99.8523
2.430000 74.847 -99.9761
2.470000 74.828 -100.0429
2.500000 74.814 -100.0160
2.540000 74.800 -99.8723
2.580000 74.788 -99.5966
2.620000 74.769 -99.1613
2.650000 74.750 -98.7369
2.690000 74.722 -98.0572
2.720000 74.701 -97.4732
2.760000 74.678 -96.6124
2.800000 74.665 -95.6765
2.850000 74.667 -94.4327
2.900000 74.700 -93.1443
2.950000 74.771 -91.8313
3.000000 74.869 -90.3569
3.040000 74.964 -89.0707
3.070000 75.046 -88.0651
3.110000 75.167 -86.6953
3.150000 75.302 -85.3220
3.200000 75.489 -83.6493
3.250000 75.695 -82.0842
3.300000 75.920 -80.6887
3.350000 76.174 -79.3992
3.400000 76.458 -78.1556
3.450000 76.765 -76.9791
3.500000 77.088 -75.8908
3.550000 77.417 -74.9117
3.600000 77.746 -74.0629
3.650000 78.066 -73.3654
3.700000 78.378 -72.8364
3.750000 78.697 -72.4662
3.820000 79.148 -72.1777
3.870000 79.469 -72.1093
3.950000 79.969 -72.1847
4.000000 80.267 -72.3170
4.060000 80.608 -72.5490
4.120000 80.936 -72.9307
4.180000 81.253 -73.4430
4.250000 81.607 -74.1599
4.310000 81.897 -74.8372
4.370000 82.172 -75.5359
4.440000 82.474 -76.3647
4.500000 82.716 -77.1415
4.550000 82.908 -77.8266
4.620000 83.160 -78.8211
4.680000 83.364 -79.6860
4.750000 83.588 -80.6826
4.820000 83.796 -81.6705
4.870000 83.934 -82.3922
4.940000 84.113 -83.4093
5.000000 84.255 -84.2727
5.080000 84.432 -85.3871
5.150000 84.577 -86.3076
5.220000 84.707 -87.1969
5.300000 84.842 -88.1781
5.380000 84.963 -89.1105
5.450000 85.063 -89.8770
5.520000 85.159 -90.5902
5.600000 85.258 -91.3470
5.700000 85.369 -92.2097
5.800000 85.474 -92.9798
5.900000 85.578 -93.6551
6.000000 85.678 -94.2226
6.080000 85.755 -94.6123
6.150000 85.824 -94.9184
6.220000 85.896 -95.2016
6.300000 85.982 -95.4880
6.400000 86.091 -95.7790
6.500000 86.206 -96.0302
6.600000 86.327 -96.2787
6.700000 86.455 -96.5134
6.800000 86.589 -96.7304
6.900000 86.728 -96.9586
7.000000 86.871 -97.2222
7.100000 87.018 -97.5048
7.200000 87.169 -97.8118
7.300000 87.319 -98.1571
7.400000 87.469 -98.5489
7.500000 87.620 -98.9799
7.620000 87.799 -99.5480
7.750000 87.984 -100.2273
7.880000 88.164 -100.9777
8.000000 88.322 -101.7195
8.120000 88.468 -102.4988
8.250000 88.617 -103.3967
8.380000 88.752 -104.3230
8.500000 88.862 -105.1864
8.620000 88.960 -106.0715
8.750000 89.051 -107.0199
8.850000 89.111 -107.7248
9.000000 89.182 -108.7651
9.120000 89.226 -109.5478
9.250000 89.264 -110.3209
9.380000 89.289 -111.0303
9.500000 89.305 -111.6119
9.620000 89.315 -112.1099
9.750000 89.318 -112.5641
9.880000 89.318 -112.9454
10.000000 89.315 -113.2278
10.150000 89.306 -113.4961
10.300000 89.302 -113.7327
10.440000 89.301 -113.9102
10.600000 89.304 -114.1212
10.750000 89.316 -114.3761
10.900000 89.331 -114.6715
11.060000 89.340 -115.0664
11.200000 89.344 -115.4879
11.380000 89.331 -116.0434
11.500000 89.307 -116.4291
11.720000 89.236 -117.0492
11.800000 89.201 -117.2092
12.060000 89.063 -117.4924
12.200000 88.989 -117.3916
12.410000 88.887 -116.9407
12.500000 88.860 -116.6490
12.650000 88.832 -115.9930
12.800000 88.839 -115.2784
13.150000 89.021 -113.6929
13.200000 89.061 -113.5400
13.400000 89.264 -113.1209
13.600000 89.487 -113.1373
13.800000 89.714 -113.6671
14.000000 89.905 -114.5783
14.300000 90.105 -116.5279
14.500000 90.161 -117.9654
14.750000 90.159 -119.5996
15.000000 90.090 -120.8920
15.250000 90.000 -121.6270
15.500000 89.937 -121.8870
15.750000 89.927 -121.7794
16.000000 89.999 -121.5849
16.250000 90.131 -121.6069
16.500000 90.302 -121.9605
16.750000 90.473 -122.7509
17.000000 90.608 -123.8170
17.250000 90.700 -125.0120
17.500000 90.739 -126.1351
17.750000 90.750 -126.9792
18.000000 90.753 -127.5230
18.250000 90.775 -127.7495
18.500000 90.841 -127.8350
18.750000 90.948 -127.9289
19.000000 91.090 -128.1699
19.250000 91.239 -128.6780
19.500000 91.372 -129.3961
19.750000 91.473 -130.2727
20.000000 91.530 -131.1289
20.299999 91.557 -131.9515
20.600000 91.559 -132.4315
20.900000 91.571 -132.5567
21.200001 91.620 -132.4646
21.400000 91.676 -132.4106
21.799999 91.822 -132.4884
22.000000 91.896 -132.6656
22.400000 92.018 -133.2448
22.700001 92.075 -133.7213
23.000000 92.112 -134.0976
23.299999 92.146 -134.3589
23.600000 92.191 -134.5746
24.000000 92.266 -134.9515
24.299999 92.319 -135.3857
24.700001 92.358 -136.1173
25.000000 92.357 -136.6413
25.400000 92.328 -137.1167
25.799999 92.311 -137.2886
26.200001 92.337 -137.3415
26.500000 92.386 -137.4647
26.900000 92.465 -137.8503
27.200001 92.520 -138.2817
27.600000 92.577 -138.9332
28.000000 92.623 -139.5630
28.500000 92.680 -140.3208
29.000000 92.732 -141.1147
29.500000 92.758 -141.8236
30.000000 92.779 -142.2086
30.400000 92.826 -142.2980
30.700001 92.888 -142.3519
31.100000 92.995 -142.5769
31.500000 93.099 -143.0246
32.000000 93.190 -143.7100
32.500000 93.245 -144.2227
33.000000 93.309 -144.5164
33.500000 93.399 -144.8494
34.000000 93.481 -145.4089
34.500000 93.519 -146.0512
35.000000 93.517 -146.5090
35.500000 93.515 -146.6949
36.000000 93.539 -146.7751
36.500000 93.584 -146.9499
37.000000 93.626 -147.2782
37.500000 93.650 -147.6748
38.200001 93.663 -148.1414
38.700001 93.676 -148.3677
39.500000 93.735 -148.7190
40.000000 93.787 -149.0548
40.599998 93.847 -149.5954
41.200001 93.893 -150.1941
41.799999 93.927 -150.7709
42.500000 93.959 -151.3866
43.099998 93.980 -151.8496
43.700001 93.996 -152.2116
44.400002 94.017 -152.4726
45.000000 94.054 -152.6085
45.500000 94.099 -152.7625
46.200001 94.164 -153.1620
46.799999 94.194 -153.6107
47.500000 94.201 -153.9927
48.200001 94.223 -154.1647
48.700001 94.262 -154.3121
49.400002 94.328 -154.7519
50.000000 94.364 -155.2889
50.799999 94.377 -155.9338
51.500000 94.386 -156.3287
52.200001 94.408 -156.6936
53.000000 94.426 -157.1174
53.799999 94.437 -157.3614
54.500000 94.469 -157.4545
55.200001 94.517 -157.6271
56.000000 94.564 -157.9266
57.000000 94.612 -158.3156
58.000000 94.640 -158.8078
59.000000 94.644 -159.2018
60.000000 94.661 -159.6207
60.799999 94.659 -160.0376
61.500000 94.650 -160.3030
62.200001 94.657 -160.5247
63.000000 94.675 -160.8514
64.000000 94.695 -161.3033
65.000000 94.711 -161.7938
66.000000 94.707 -162.1956
67.000000 94.715 -162.3822
68.000000 94.748 -162.5951
69.000000 94.780 -162.9203
70.000000 94.802 -163.2612
71.000000 94.821 -163.6186
72.000000 94.828 -163.9346
73.000000 94.846 -164.1531
74.000000 94.870 -164.4549
75.000000 94.878 -164.6670
76.199997 94.924 -164.7440
77.500000 95.007 -165.2055
78.800003 95.024 -166.0597
80.000000 94.955 -166.6448
81.199997 94.886 -166.6763
82.500000 94.900 -166.7041
83.800003 94.924 -167.2346
85.000000 94.925 -167.7391
86.199997 94.939 -168.1829
87.500000 94.964 -168.6246
88.500000 94.984 -168.8835
90.000000 95.018 -168.9991
91.199997 95.079 -168.9968
92.500000 95.150 -169.3190
93.800003 95.152 -169.8492
95.000000 95.118 -170.1379
96.199997 95.093 -170.3315
97.500000 95.078 -170.5613
98.800003 95.074 -170.8353
100.000000 95.074 -171.1228
101.500000 95.072 -171.4789
103.000000 95.069 -171.8119
104.400002 95.064 -172.0772
106.000000 95.059 -172.3033
107.500000 95.074 -172.4891
109.000000 95.102 -172.8947
110.599998 95.114 -173.6023
112.000000 95.096 -174.2732
113.800003 95.047 -174.7816
115.000000 95.032 -174.7424
117.199997 95.093 -174.4659
118.000000 95.116 -174.5076
120.599998 95.100 -174.7998
122.000000 95.080 -175.0277
124.099998 95.062 -175.5015
125.000000 95.063 -175.6864
126.500000 95.082 -175.9396
128.000000 95.110 -176.1831
131.500000 95.123 -176.9473
132.000000 95.115 -177.0607
134.000000 95.078 -177.4151
136.000000 95.058 -177.6709
138.000000 95.043 -177.9785
140.000000 95.002 -178.3058
143.000000 94.945 -178.5065
145.000000 94.944 -178.6688
147.500000 94.958 -178.9459
150.000000 94.972 -179.2550
152.500000 94.975 -179.5544
155.000000 94.979 -179.8124
157.500000 94.998 179.8954
160.000000 95.013 179.5895
162.500000 95.017 179.3360
165.000000 95.007 179.0598
167.500000 94.988 178.7374
170.000000 94.973 178.4801
172.500000 94.971 178.2468
175.000000 94.958 177.9724
177.500000 94.927 177.7250
180.000000 94.899 177.5439
182.500000 94.889 177.3400
185.000000 94.874 177.0562
187.500000 94.842 176.8157
190.000000 94.808 176.6394
192.500000 94.788 176.4725
195.000000 94.768 176.3083
197.500000 94.758 176.1986
200.000000 94.755 175.9669
203.000000 94.730 175.6215
206.000000 94.695 175.3662
209.000000 94.661 175.1319
212.000000 94.630 174.9071
214.000000 94.612 174.7578
218.000000 94.576 174.4749
220.000000 94.555 174.3622
224.000000 94.508 174.2244
227.000000 94.480 174.0673
230.000000 94.453 173.8167
233.000000 94.426 173.5517
236.000000 94.406 173.3004
240.000000 94.390 173.1112
243.000000 94.364 172.9935
247.000000 94.311 172.7634
250.000000 94.286 172.5811
254.000000 94.249 172.4235
258.000000 94.205 172.2147
262.000000 94.168 171.9851
265.000000 94.142 171.8777
269.000000 94.104 171.7663
272.000000 94.075 171.6917
276.000000 94.039 171.6333
280.000000 94.006 171.5834
285.000000 93.954 171.3385
290.000000 93.915 171.0666
295.000000 93.871 170.9223
300.000000 93.815 170.9219
304.000000 93.776 170.8489
307.000000 93.742 170.7745
311.000000 93.700 170.6812
315.000000 93.670 170.5226
320.000000 93.627 170.3564
325.000000 93.571 170.3293
330.000000 93.511 170.2959
335.000000 93.463 170.1631
340.000000 93.424 170.0402
345.000000 93.389 170.0221
350.000000 93.344 170.0520
355.000000 93.284 170.0778
360.000000 93.229 170.0977
365.000000 93.185 170.1627
370.000000 93.137 170.1847
375.000000 93.077 170.1617
382.000000 93.000 170.1382
387.000000 92.947 170.1478
395.000000 92.861 170.1503
400.000000 92.817 170.1652
406.000000 92.763 170.2129
412.000000 92.694 170.2635
418.000000 92.628 170.3664
425.000000 92.550 170.4982
431.000000 92.494 170.5828
437.000000 92.437 170.6708
444.000000 92.348 170.9113
450.000000 92.261 171.2258
455.000000 92.201 171.4044
462.000000 92.152 171.3793
468.000000 92.113 171.4301
475.000000 92.055 171.6509
482.000000 91.987 171.8749
487.000000 91.934 172.0162
494.000000 91.861 172.2746
500.000000 91.803 172.5311
508.000000 91.731 172.8311
515.000000 91.669 173.0457
522.000000 91.608 173.3021
530.000000 91.548 173.6693
538.000000 91.493 173.9928
545.000000 91.440 174.2600
552.000000 91.379 174.5724
560.000000 91.302 174.9816
570.000000 91.212 175.5226
580.000000 91.136 176.0640
590.000000 91.067 176.6317
600.000000 90.994 177.2263
608.000000 90.942 177.6642
615.000000 90.897 178.0253
622.000000 90.846 178.3924
630.000000 90.785 178.8414
640.000000 90.707 179.4716
650.000000 90.636 -179.8693
660.000000 90.569 -179.1730
670.000000 90.507 -178.4716
680.000000 90.459 -177.7530
690.000000 90.407 -177.1074
700.000000 90.344 -176.5042
710.000000 90.295 -175.8352
720.000000 90.253 -175.1161
730.000000 90.212 -174.3609
740.000000 90.173 -173.5773
750.000000 90.133 -172.7964
762.000000 90.089 -171.8657
775.000000 90.044 -170.8289
788.000000 90.006 -169.7898
800.000000 89.979 -168.8063
812.000000 89.955 -167.8249
825.000000 89.931 -166.8200
838.000000 89.915 -165.7879
850.000000 89.910 -164.8189
862.000000 89.909 -163.8008
875.000000 89.921 -162.6509
885.000000 89.927 -161.7986
900.000000 89.932 -160.5974
912.000000 89.952 -159.6676
925.000000 89.980 -158.6381
938.000000 90.008 -157.6194
950.000000 90.037 -156.6889
962.000000 90.077 -155.7668
975.000000 90.125 -154.7907
988.000000 90.173 -153.8461
1000.000000 90.218 -152.9883
1015.000000 90.281 -151.9268
1030.000000 90.346 -150.8972
1044.000000 90.414 -149.9667
1060.000000 90.505 -148.9616
1075.000000 90.596 -148.0837
1090.000000 90.694 -147.2531
1106.000000 90.813 -146.4211
1120.000000 90.925 -145.7691
1138.000000 91.072 -145.0143
1150.000000 91.166 -144.5340
1172.000000 91.324 -143.7136
1180.000000 91.378 -143.4408
1206.000000 91.547 -142.6448
1220.000000 91.642 -142.2650
1241.000000 91.783 -141.7232
1250.000000 91.841 -141.4930
1265.000000 91.933 -141.1143
1280.000000 92.019 -140.7481
1315.000000 92.206 -139.8738
1320.000000 92.231 -139.7477
1340.000000 92.323 -139.2554
1360.000000 92.392 -138.7693
1380.000000 92.450 -138.2545
1400.000000 92.521 -137.7233
1430.000000 92.646 -136.9478
1450.000000 92.733 -136.4243
1475.000000 92.841 -135.7348
1500.000000 92.944 -135.0137
1525.000000 93.047 -134.3091
1550.000000 93.148 -133.5857
1575.000000 93.248 -132.8484
1600.000000 93.346 -132.1051
1625.000000 93.443 -131.3421
1650.000000 93.544 -130.5852
1675.000000 93.652 -129.8278
1700.000000 93.763 -129.0680
1725.000000 93.874 -128.3046
1750.000000 93.986 -127.5376
1775.000000 94.101 -126.7799
1800.000000 94.220 -126.0354
1825.000000 94.343 -125.2932
1850.000000 94.471 -124.5522
1875.000000 94.602 -123.8226
1900.000000 94.736 -123.1047
1925.000000 94.871 -122.3970
1950.000000 95.013 -121.7074
1975.000000 95.161 -121.0365
2000.000000 95.310 -120.3838
2030.000000 95.493 -119.6154
2060.000000 95.686 -118.8723
2090.000000 95.889 -118.1626
2120.000000 96.097 -117.4675
2140.000000 96.238 -117.0248
2180.000000 96.530 -116.1828
2200.000000 96.681 -115.7917
2240.000000 96.998 -115.0953
2270.000000 97.242 -114.6251
2300.000000 97.492 -114.2226
2330.000000 97.748 -113.8976
2360.000000 98.010 -113.6555
2400.000000 98.371 -113.5096
2430.000000 98.650 -113.5412
2470.000000 99.026 -113.8020
2500.000000 99.305 -114.1695
2540.000000 99.663 -114.8697
2580.000000 99.998 -115.7921
2620.000000 100.312 -116.9184
2650.000000 100.534 -117.8750
2690.000000 100.805 -119.2508
2720.000000 100.988 -120.3448
2760.000000 101.208 -121.8715
2800.000000 101.405 -123.4609
2850.000000 101.621 -125.5105
2900.000000 101.797 -127.6064
2950.000000 101.932 -129.7210
3000.000000 102.026 -131.8333
3040.000000 102.075 -133.5031
3070.000000 102.095 -134.7328
3110.000000 102.102 -136.3289
3150.000000 102.090 -137.8657
3200.000000 102.049 -139.6797
3250.000000 101.979 -141.3423
3300.000000 101.885 -142.8410
3350.000000 101.778 -144.1871
3400.000000 101.660 -145.3822
3450.000000 101.534 -146.4359
3500.000000 101.403 -147.3402
3550.000000 101.270 -148.0812
3600.000000 101.135 -148.6291
3650.000000 101.006 -148.9763
3700.000000 100.891 -149.1487
3750.000000 100.796 -149.1915
3820.000000 100.708 -149.2353
3870.000000 100.666 -149.3780
3950.000000 100.596 -149.8496
4000.000000 100.535 -150.2119
4060.000000 100.446 -150.6185
4120.000000 100.344 -150.9355
4180.000000 100.238 -151.1536
4250.000000 100.120 -151.3086
4310.000000 100.018 -151.3743
4370.000000 99.909 -151.3960
4440.000000 99.774 -151.3839
4500.000000 99.663 -151.3692
4550.000000 99.577 -151.3696
4620.000000 99.463 -151.3952
4680.000000 99.361 -151.4395
4750.000000 99.225 -151.4773
4820.000000 99.068 -151.4365
4870.000000 98.950 -151.3252
4940.000000 98.789 -151.0252
5000.000000 98.665 -150.6456
5080.000000 98.526 -150.0361
5150.000000 98.430 -149.4959
5220.000000 98.350 -149.0109
5300.000000 98.267 -148.5565
5380.000000 98.191 -148.2138
5450.000000 98.128 -147.9857
5520.000000 98.063 -147.7970
5600.000000 97.978 -147.5984
5700.000000 97.852 -147.3292
5800.000000 97.712 -146.9868
5900.000000 97.572 -146.5432
6000.000000 97.437 -145.9976
6080.000000 97.331 -145.4957
6150.000000 97.241 -145.0202
6220.000000 97.155 -144.5131
6300.000000 97.061 -143.8968
6400.000000 96.954 -143.0731
6500.000000 96.864 -142.2049
6600.000000 96.792 -141.3025
6700.000000 96.742 -140.3830
6800.000000 96.725 -139.4780
6900.000000 96.761 -138.6235
7000.000000 96.852 -137.8517
7100.000000 96.982 -137.1954
7200.000000 97.140 -136.7076
7300.000000 97.322 -136.4752
7400.000000 97.521 -136.5832
7500.000000 97.736 -137.1077
7620.000000 98.010 -138.3492
7750.000000 98.288 -140.4848
7880.000000 98.428 -143.4005
8000.000000 98.421 -146.6805
8120.000000 98.284 -150.3807
8250.000000 97.972 -154.6640
8380.000000 97.471 -158.9086
8500.000000 96.838 -162.3843
8620.000000 96.064 -165.0871
8750.000000 95.112 -166.9357
8850.000000 94.337 -167.5797
9000.000000 93.163 -167.3930
9120.000000 92.248 -166.3940
9250.000000 91.298 -164.6170
9380.000000 90.399 -162.2508
9500.000000 89.614 -159.6395
9620.000000 88.878 -156.6964
9750.000000 88.139 -153.2049
9880.000000 87.462 -149.4597
10000.000000 86.889 -145.8250
10150.000000 86.238 -141.0992
10300.000000 85.649 -136.2210
10440.000000 85.151 -131.5646
10600.000000 84.637 -126.1475
10750.000000 84.208 -120.9982
10900.000000 83.832 -115.8070
11060.000000 83.490 -110.2480
11200.000000 83.239 -105.3927
11380.000000 82.972 -99.1926
11500.000000 82.827 -95.1006
11720.000000 82.630 -87.7166
11800.000000 82.579 -85.0809
12060.000000 82.486 -76.7636
12200.000000 82.472 -72.4515
12410.000000 82.490 -66.1515
12500.000000 82.513 -63.5074
12650.000000 82.576 -59.1954
12800.000000 82.671 -55.0321
13150.000000 83.015 -46.0230
13200.000000 83.076 -44.8233
13400.000000 83.350 -40.2579
13600.000000 83.672 -36.0878
13800.000000 84.050 -32.3449
14000.000000 84.484 -29.0764
14300.000000 85.239 -25.1660
14500.000000 85.838 -23.4367
14750.000000 86.688 -22.9440
15000.000000 87.549 -25.2648
15250.000000 88.194 -31.1949
15500.000000 88.320 -40.1364
15750.000000 87.718 -49.2877
16000.000000 86.448 -55.3151
16250.000000 84.822 -56.7740
16500.000000 83.178 -54.1673
16750.000000 81.730 -48.6776
17000.000000 80.573 -41.4016
17250.000000 79.747 -33.1810
17500.000000 79.271 -24.6819
17750.000000 79.131 -16.5159
18000.000000 79.296 -9.3453
18250.000000 79.717 -3.9599
18500.000000 80.339 -1.2364
18750.000000 81.001 -1.7133
19000.000000 81.367 -4.7428
19250.000000 81.079 -8.0979
19500.000000 79.982 -9.1474
19750.000000 78.207 -6.4126
20000.000000 75.967 0.0539
20300.000000 72.890 11.6012
20600.000000 69.603 26.0612
20900.000000 66.114 42.0525
21200.000000 62.332 57.8705
21400.000000 59.597 66.1592
21800.000000 53.408 28.2363
22000.000000 49.840 -139.6927
22400.000000 41.446 -171.3916
22700.000000 33.895 -11.0156
23000.000000 25.339 -69.8672
23300.000000 16.616 -83.3203
23600.000000 11.143 -138.7422
24000.000000 9.480 -70.7227
