* Measurement data measured by REW V5.31.1
* Source: Headset (DS by VECLAN.COM), MICROPHONE (Master Volume), L, volume: 0.720. Timing signal peak level -14.3 dBFS, measurement signal peak level -14.3 dBFS
* Format: 2M Log Swept Sine, 1 sweep at -12.0 dBFS using an acoustic timing reference
* Dated: Jul 16, 2024 9:38:54 PM
* REW Settings:
*  C-weighting compensation: Off
*  Target level: 85.0 dB
* Note: ; Delay -0.0677 ms (-23 mm, -0.91 in) using estimated IR delay relative to Acoustic reference played from HEADPHONE L with no timing offset
* Measurement: Pop L
* Smoothing: 1/24 octave
* Frequency Step: 1/48 octave
* Start Frequency: 1.000 Hz
*
* Freq(Hz), SPL(dB), Phase(degrees)
1.000000, 54.162, 12.6040
1.015000, 54.177, 13.1900
1.030000, 54.199, 13.7823
1.044000, 54.227, 14.3400
1.060000, 54.268, 14.9816
1.075000, 54.317, 15.5865
1.090000, 54.375, 16.1967
1.106000, 54.449, 16.8657
1.120000, 54.526, 17.4550
1.138000, 54.640, 18.1859
1.150000, 54.725, 18.6550
1.172000, 54.899, 19.4776
1.180000, 54.967, 19.7624
1.206000, 55.205, 20.6702
1.220000, 55.343, 21.1527
1.241000, 55.559, 21.8767
1.250000, 55.655, 22.1890
1.265000, 55.818, 22.7149
1.280000, 55.984, 23.2500
1.315000, 56.380, 24.5498
1.320000, 56.437, 24.7427
1.340000, 56.665, 25.5349
1.360000, 56.890, 26.3649
1.380000, 57.110, 27.1970
1.400000, 57.324, 28.0575
1.430000, 57.627, 29.4275
1.450000, 57.814, 30.3477
1.475000, 58.031, 31.1388
1.500000, 58.235, 31.4857
1.525000, 58.429, 31.7967
1.550000, 58.615, 32.1213
1.575000, 58.796, 32.4191
1.600000, 58.972, 32.6536
1.625000, 59.144, 32.8481
1.650000, 59.315, 32.9894
1.675000, 59.486, 33.0678
1.700000, 59.657, 33.0758
1.725000, 59.832, 33.0080
1.750000, 60.010, 32.8612
1.775000, 60.193, 32.6170
1.800000, 60.383, 32.2603
1.825000, 60.581, 31.8369
1.850000, 60.787, 31.3936
1.875000, 60.999, 30.9861
1.900000, 61.216, 30.6222
1.925000, 61.439, 30.2895
1.950000, 61.665, 29.9751
1.975000, 61.894, 29.6501
2.000000, 62.125, 29.2883
2.030000, 62.404, 28.8382
2.060000, 62.684, 28.3571
2.090000, 62.963, 27.8353
2.120000, 63.240, 27.2652
2.140000, 63.423, 26.8555
2.180000, 63.783, 25.9443
2.200000, 63.959, 25.4445
2.240000, 64.310, 24.4695
2.270000, 64.572, 23.7888
2.300000, 64.833, 23.1455
2.330000, 65.093, 22.5281
2.360000, 65.352, 21.9255
2.400000, 65.694, 21.0806
2.430000, 65.948, 20.4345
2.470000, 66.283, 19.5520
2.500000, 66.530, 18.8668
2.540000, 66.856, 17.9157
2.580000, 67.175, 16.9195
2.620000, 67.490, 15.9119
2.650000, 67.723, 15.1875
2.690000, 68.031, 14.2568
2.720000, 68.258, 13.5787
2.760000, 68.557, 12.6929
2.800000, 68.851, 11.7760
2.850000, 69.212, 10.6200
2.900000, 69.564, 9.4444
2.950000, 69.907, 8.2516
3.000000, 70.243, 7.0492
3.040000, 70.505, 6.1049
3.070000, 70.698, 5.4130
3.110000, 70.951, 4.5091
3.150000, 71.200, 3.6218
3.200000, 71.504, 2.4975
3.250000, 71.801, 1.3659
3.300000, 72.091, 0.2347
3.350000, 72.374, -0.8877
3.400000, 72.649, -2.0223
3.450000, 72.917, -3.1439
3.500000, 73.178, -4.2373
3.550000, 73.433, -5.3034
3.600000, 73.681, -6.3724
3.650000, 73.922, -7.4344
3.700000, 74.157, -8.4835
3.750000, 74.386, -9.5200
3.820000, 74.694, -10.9746
3.870000, 74.906, -11.9916
3.950000, 75.235, -13.5591
4.000000, 75.435, -14.5232
4.060000, 75.668, -15.6616
4.120000, 75.893, -16.7779
4.180000, 76.111, -17.8764
4.250000, 76.356, -19.1487
4.310000, 76.560, -20.1936
4.370000, 76.758, -21.1980
4.440000, 76.982, -22.3557
4.500000, 77.168, -23.3198
4.550000, 77.318, -24.1018
4.620000, 77.522, -25.1863
4.680000, 77.693, -26.0817
4.750000, 77.889, -27.0743
4.820000, 78.081, -28.0398
4.870000, 78.215, -28.7091
4.940000, 78.399, -29.6123
5.000000, 78.554, -30.3705
5.080000, 78.757, -31.3480
5.150000, 78.933, -32.1584
5.220000, 79.107, -32.9511
5.300000, 79.302, -33.8233
5.380000, 79.496, -34.6616
5.450000, 79.664, -35.3893
5.520000, 79.833, -36.0917
5.600000, 80.025, -36.8726
5.700000, 80.264, -37.8270
5.800000, 80.501, -38.7645
5.900000, 80.738, -39.7083
6.000000, 80.974, -40.6390
6.080000, 81.162, -41.3884
6.150000, 81.325, -42.0394
6.220000, 81.486, -42.7076
6.300000, 81.668, -43.4764
6.400000, 81.894, -44.4423
6.500000, 82.115, -45.4224
6.600000, 82.330, -46.4101
6.700000, 82.539, -47.4189
6.800000, 82.743, -48.4328
6.900000, 82.940, -49.4519
7.000000, 83.130, -50.4654
7.100000, 83.312, -51.4865
7.200000, 83.488, -52.5001
7.300000, 83.657, -53.5020
7.400000, 83.818, -54.4856
7.500000, 83.971, -55.4649
7.620000, 84.148, -56.6087
7.750000, 84.329, -57.7970
7.880000, 84.502, -58.9478
8.000000, 84.654, -59.9627
8.120000, 84.802, -60.9326
8.250000, 84.958, -61.9369
8.380000, 85.109, -62.8929
8.500000, 85.247, -63.7380
8.620000, 85.383, -64.5461
8.750000, 85.530, -65.3892
8.850000, 85.642, -66.0188
9.000000, 85.811, -66.9297
9.120000, 85.946, -67.6430
9.250000, 86.091, -68.4072
9.380000, 86.236, -69.1590
9.500000, 86.369, -69.8507
9.620000, 86.500, -70.5362
9.750000, 86.640, -71.2744
9.880000, 86.770, -72.0124
10.000000, 86.879, -72.6853
10.150000, 87.001, -73.5533
10.300000, 87.113, -74.4003
10.440000, 87.208, -75.1717
10.600000, 87.312, -76.0285
10.750000, 87.407, -76.8063
10.900000, 87.501, -77.5606
11.060000, 87.601, -78.3658
11.200000, 87.688, -79.0884
11.380000, 87.797, -79.9909
11.500000, 87.867, -80.5770
11.720000, 87.993, -81.6222
11.800000, 88.038, -81.9934
12.060000, 88.187, -83.1935
12.200000, 88.268, -83.8634
12.410000, 88.387, -84.8434
12.500000, 88.437, -85.2537
12.650000, 88.517, -85.9247
12.800000, 88.594, -86.5788
13.150000, 88.768, -88.0904
13.200000, 88.792, -88.3086
13.400000, 88.889, -89.1614
13.600000, 88.985, -89.9826
13.800000, 89.078, -90.7727
14.000000, 89.170, -91.5384
14.300000, 89.306, -92.7158
14.500000, 89.394, -93.4713
14.750000, 89.501, -94.3814
15.000000, 89.608, -95.2598
15.250000, 89.720, -96.1648
15.500000, 89.832, -97.0454
15.750000, 89.941, -97.9018
16.000000, 90.047, -98.7376
16.250000, 90.151, -99.5991
16.500000, 90.254, -100.4414
16.750000, 90.353, -101.2634
17.000000, 90.452, -102.0685
17.250000, 90.550, -102.8842
17.500000, 90.645, -103.6827
17.750000, 90.738, -104.4593
18.000000, 90.827, -105.2154
18.250000, 90.915, -105.9706
18.500000, 91.002, -106.7037
18.750000, 91.087, -107.4142
19.000000, 91.174, -108.1069
19.250000, 91.261, -108.8133
19.500000, 91.349, -109.5148
19.750000, 91.435, -110.2157
20.000000, 91.518, -110.9176
20.299999, 91.613, -111.7872
20.600000, 91.700, -112.6417
20.900000, 91.781, -113.4670
21.200001, 91.857, -114.2714
21.400000, 91.905, -114.7901
21.799999, 91.999, -115.7754
22.000000, 92.046, -116.2493
22.400000, 92.139, -117.2034
22.700001, 92.207, -117.9008
23.000000, 92.274, -118.5841
23.299999, 92.340, -119.2702
23.600000, 92.404, -119.9413
24.000000, 92.491, -120.8199
24.299999, 92.556, -121.4940
24.700001, 92.638, -122.3938
25.000000, 92.695, -123.0599
25.400000, 92.764, -123.9358
25.799999, 92.830, -124.7522
26.200001, 92.897, -125.5252
26.500000, 92.951, -126.0990
26.900000, 93.026, -126.8788
27.200001, 93.081, -127.4924
27.600000, 93.147, -128.3324
28.000000, 93.202, -129.1548
28.500000, 93.261, -130.1213
29.000000, 93.321, -131.0052
29.500000, 93.387, -131.8810
30.000000, 93.451, -132.7768
30.400000, 93.495, -133.5045
30.700001, 93.524, -134.0309
31.100000, 93.561, -134.6994
31.500000, 93.600, -135.3477
32.000000, 93.653, -136.1455
32.500000, 93.707, -136.9725
33.000000, 93.757, -137.8053
33.500000, 93.801, -138.6313
34.000000, 93.844, -139.4332
34.500000, 93.886, -140.2249
35.000000, 93.923, -140.9883
35.500000, 93.958, -141.7115
36.000000, 93.994, -142.3990
36.500000, 94.033, -143.0951
37.000000, 94.066, -143.8089
37.500000, 94.087, -144.4971
38.200001, 94.111, -145.2981
38.700001, 94.145, -145.8083
39.500000, 94.225, -146.8163
40.000000, 94.260, -147.6040
40.599998, 94.273, -148.5507
41.200001, 94.272, -149.3368
41.799999, 94.284, -150.0058
42.500000, 94.320, -150.8414
43.099998, 94.345, -151.6464
43.700001, 94.356, -152.4291
44.400002, 94.364, -153.2002
45.000000, 94.382, -153.7824
45.500000, 94.404, -154.2811
46.200001, 94.434, -155.0181
46.799999, 94.452, -155.6342
47.500000, 94.475, -156.3181
48.200001, 94.500, -157.0498
48.700001, 94.509, -157.6164
49.400002, 94.503, -158.3848
50.000000, 94.490, -158.9587
50.799999, 94.482, -159.6508
51.500000, 94.482, -160.2624
52.200001, 94.486, -160.9062
53.000000, 94.488, -161.6549
53.799999, 94.487, -162.3371
54.500000, 94.499, -162.8896
55.200001, 94.515, -163.4816
56.000000, 94.520, -164.0705
57.000000, 94.567, -164.6426
58.000000, 94.624, -165.7387
59.000000, 94.558, -166.8350
60.000000, 94.491, -167.2533
60.799999, 94.479, -167.6209
61.500000, 94.462, -168.0669
62.200001, 94.440, -168.5090
63.000000, 94.418, -169.0261
64.000000, 94.387, -169.7100
65.000000, 94.360, -170.3638
66.000000, 94.340, -171.0168
67.000000, 94.318, -171.6604
68.000000, 94.295, -172.2493
69.000000, 94.274, -172.7989
70.000000, 94.251, -173.3405
71.000000, 94.223, -173.8780
72.000000, 94.191, -174.3645
73.000000, 94.171, -174.8386
74.000000, 94.150, -175.4084
75.000000, 94.119, -175.9692
76.199997, 94.086, -176.6272
77.500000, 94.040, -177.2990
78.800003, 94.002, -177.7892
80.000000, 93.982, -178.2217
81.199997, 93.956, -178.6756
82.500000, 93.917, -179.0930
83.800003, 93.877, -179.5080
85.000000, 93.836, -179.9519
86.199997, 93.795, 179.5292
87.500000, 93.750, 178.9235
88.500000, 93.732, 178.4423
90.000000, 93.682, 177.4919
91.199997, 93.613, 177.1494
92.500000, 93.589, 176.9869
93.800003, 93.564, 176.7038
95.000000, 93.531, 176.4477
96.199997, 93.489, 176.1577
97.500000, 93.440, 175.8464
98.800003, 93.401, 175.5027
100.000000, 93.368, 175.1512
101.500000, 93.333, 174.7565
103.000000, 93.287, 174.3323
104.400002, 93.227, 174.0785
106.000000, 93.164, 173.7888
107.500000, 93.096, 173.4403
109.000000, 93.022, 173.1722
110.599998, 92.977, 172.9358
112.000000, 92.944, 172.6196
113.800003, 92.894, 172.2525
115.000000, 92.861, 172.0300
117.199997, 92.795, 171.6475
118.000000, 92.774, 171.5445
120.599998, 92.705, 171.0568
122.000000, 92.651, 170.8768
124.099998, 92.579, 170.6843
125.000000, 92.549, 170.5876
126.500000, 92.500, 170.4145
128.000000, 92.452, 170.2438
131.500000, 92.353, 169.8781
132.000000, 92.338, 169.8365
134.000000, 92.278, 169.7081
136.000000, 92.215, 169.5832
138.000000, 92.161, 169.4684
140.000000, 92.118, 169.1861
143.000000, 92.033, 168.8098
145.000000, 91.977, 168.7066
147.500000, 91.912, 168.6001
150.000000, 91.847, 168.4345
152.500000, 91.788, 168.3044
155.000000, 91.727, 168.1824
157.500000, 91.642, 168.1009
160.000000, 91.562, 168.0428
162.500000, 91.501, 167.9436
165.000000, 91.445, 168.0610
167.500000, 91.393, 168.2961
170.000000, 91.343, 168.4362
172.500000, 91.304, 168.3259
175.000000, 91.265, 168.1631
177.500000, 91.230, 168.1521
180.000000, 91.191, 168.1438
182.500000, 91.137, 168.1229
185.000000, 91.073, 168.1491
187.500000, 91.003, 168.1556
190.000000, 90.938, 168.1140
192.500000, 90.884, 168.1262
195.000000, 90.840, 168.2491
197.500000, 90.799, 168.3563
200.000000, 90.758, 168.3537
203.000000, 90.707, 168.3156
206.000000, 90.652, 168.3179
209.000000, 90.595, 168.3241
212.000000, 90.541, 168.3547
214.000000, 90.504, 168.4312
218.000000, 90.428, 168.6141
220.000000, 90.393, 168.7246
224.000000, 90.318, 168.9050
227.000000, 90.246, 169.0420
230.000000, 90.195, 169.1098
233.000000, 90.165, 169.0397
236.000000, 90.134, 169.2291
240.000000, 90.102, 169.6794
243.000000, 90.031, 169.7848
247.000000, 89.926, 169.9324
250.000000, 89.873, 170.0259
254.000000, 89.817, 170.2297
258.000000, 89.769, 170.5010
262.000000, 89.724, 170.7812
265.000000, 89.689, 170.9777
269.000000, 89.644, 171.1865
272.000000, 89.611, 171.3123
276.000000, 89.568, 171.4922
280.000000, 89.528, 171.6928
285.000000, 89.478, 171.9802
290.000000, 89.423, 172.2713
295.000000, 89.373, 172.5457
300.000000, 89.324, 172.8564
304.000000, 89.285, 173.1173
307.000000, 89.255, 173.3133
311.000000, 89.217, 173.5690
315.000000, 89.183, 173.8383
320.000000, 89.143, 174.1555
325.000000, 89.103, 174.4839
330.000000, 89.064, 174.8039
335.000000, 89.026, 175.1505
340.000000, 88.990, 175.5249
345.000000, 88.952, 175.8680
350.000000, 88.916, 176.2056
355.000000, 88.884, 176.5278
360.000000, 88.855, 176.8692
365.000000, 88.818, 177.2092
370.000000, 88.779, 177.5591
375.000000, 88.744, 177.9147
382.000000, 88.700, 178.4190
387.000000, 88.670, 178.7642
395.000000, 88.621, 179.3260
400.000000, 88.591, 179.6965
406.000000, 88.555, -179.8542
412.000000, 88.524, -179.4579
418.000000, 88.495, -179.0631
425.000000, 88.459, -178.5512
431.000000, 88.429, -178.1029
437.000000, 88.400, -177.6634
444.000000, 88.368, -177.1470
450.000000, 88.342, -176.7234
455.000000, 88.323, -176.3645
462.000000, 88.293, -175.8709
468.000000, 88.269, -175.4398
475.000000, 88.243, -174.9409
482.000000, 88.219, -174.4367
487.000000, 88.204, -174.0755
494.000000, 88.184, -173.5548
500.000000, 88.167, -173.1188
508.000000, 88.146, -172.5358
515.000000, 88.129, -172.0247
522.000000, 88.113, -171.5162
530.000000, 88.097, -170.9366
538.000000, 88.082, -170.3567
545.000000, 88.070, -169.8409
552.000000, 88.059, -169.3254
560.000000, 88.048, -168.7438
570.000000, 88.037, -168.0075
580.000000, 88.027, -167.2746
590.000000, 88.020, -166.5416
600.000000, 88.013, -165.8112
608.000000, 88.006, -165.2268
615.000000, 88.000, -164.7076
622.000000, 87.994, -164.1860
630.000000, 87.987, -163.5890
640.000000, 87.981, -162.8432
650.000000, 87.978, -162.1034
660.000000, 87.977, -161.3640
670.000000, 87.979, -160.6132
680.000000, 87.983, -159.8720
690.000000, 87.986, -159.1408
700.000000, 87.992, -158.4188
710.000000, 88.002, -157.6495
720.000000, 88.014, -156.8806
730.000000, 88.028, -156.1318
740.000000, 88.045, -155.3803
750.000000, 88.064, -154.6318
762.000000, 88.089, -153.7347
775.000000, 88.118, -152.7663
788.000000, 88.149, -151.8057
800.000000, 88.182, -150.9255
812.000000, 88.218, -150.0327
825.000000, 88.261, -149.0863
838.000000, 88.307, -148.1588
850.000000, 88.353, -147.3115
862.000000, 88.401, -146.4797
875.000000, 88.457, -145.5890
885.000000, 88.503, -144.9108
900.000000, 88.575, -143.9303
912.000000, 88.635, -143.1596
925.000000, 88.703, -142.3398
938.000000, 88.774, -141.5584
950.000000, 88.841, -140.8504
962.000000, 88.910, -140.1745
975.000000, 88.984, -139.4472
988.000000, 89.060, -138.7612
1000.000000, 89.130, -138.1484
1015.000000, 89.218, -137.4067
1030.000000, 89.308, -136.7064
1044.000000, 89.393, -136.0888
1060.000000, 89.490, -135.4198
1075.000000, 89.581, -134.8230
1090.000000, 89.676, -134.2684
1106.000000, 89.786, -133.7081
1120.000000, 89.884, -133.2423
1138.000000, 90.007, -132.6758
1150.000000, 90.087, -132.3197
1172.000000, 90.230, -131.6996
1180.000000, 90.281, -131.4907
1206.000000, 90.444, -130.8228
1220.000000, 90.532, -130.4677
1241.000000, 90.663, -129.9780
1250.000000, 90.718, -129.7697
1265.000000, 90.810, -129.4282
1280.000000, 90.901, -129.1024
1315.000000, 91.106, -128.3421
1320.000000, 91.133, -128.2322
1340.000000, 91.233, -127.8153
1360.000000, 91.312, -127.3805
1380.000000, 91.386, -126.9608
1400.000000, 91.472, -126.5314
1430.000000, 91.605, -125.8955
1450.000000, 91.693, -125.4773
1475.000000, 91.802, -124.9358
1500.000000, 91.909, -124.3977
1525.000000, 92.013, -123.8819
1550.000000, 92.111, -123.3329
1575.000000, 92.206, -122.7993
1600.000000, 92.300, -122.2531
1625.000000, 92.394, -121.6928
1650.000000, 92.490, -121.1304
1675.000000, 92.590, -120.5697
1700.000000, 92.693, -120.0168
1725.000000, 92.798, -119.5127
1750.000000, 92.903, -119.0172
1775.000000, 93.006, -118.5750
1800.000000, 93.106, -118.1419
1825.000000, 93.205, -117.7094
1850.000000, 93.302, -117.2927
1875.000000, 93.399, -116.8879
1900.000000, 93.496, -116.4878
1925.000000, 93.591, -116.1007
1950.000000, 93.686, -115.7169
1975.000000, 93.781, -115.3589
2000.000000, 93.876, -115.0135
2030.000000, 93.990, -114.6203
2060.000000, 94.103, -114.2509
2090.000000, 94.215, -113.8866
2120.000000, 94.325, -113.5631
2140.000000, 94.398, -113.3758
2180.000000, 94.541, -112.9819
2200.000000, 94.610, -112.8104
2240.000000, 94.742, -112.4878
2270.000000, 94.839, -112.2617
2300.000000, 94.933, -112.0625
2330.000000, 95.025, -111.8827
2360.000000, 95.115, -111.7112
2400.000000, 95.230, -111.5379
2430.000000, 95.313, -111.4193
2470.000000, 95.416, -111.2673
2500.000000, 95.490, -111.1788
2540.000000, 95.582, -111.0709
2580.000000, 95.668, -110.9783
2620.000000, 95.747, -110.8996
2650.000000, 95.802, -110.8511
2690.000000, 95.868, -110.7606
2720.000000, 95.912, -110.7187
2760.000000, 95.964, -110.6469
2800.000000, 96.007, -110.5642
2850.000000, 96.052, -110.4417
2900.000000, 96.087, -110.2700
2950.000000, 96.113, -110.0340
3000.000000, 96.136, -109.7155
3040.000000, 96.158, -109.3859
3070.000000, 96.180, -109.1154
3110.000000, 96.219, -108.7488
3150.000000, 96.269, -108.4215
3200.000000, 96.336, -108.1403
3250.000000, 96.393, -107.9758
3300.000000, 96.437, -107.8419
3350.000000, 96.469, -107.7408
3400.000000, 96.493, -107.6102
3450.000000, 96.515, -107.4663
3500.000000, 96.538, -107.3251
3550.000000, 96.557, -107.1740
3600.000000, 96.568, -107.0778
3650.000000, 96.569, -106.9727
3700.000000, 96.557, -106.8422
3750.000000, 96.534, -106.6639
3820.000000, 96.486, -106.2963
3870.000000, 96.446, -105.9509
3950.000000, 96.385, -105.2652
4000.000000, 96.353, -104.7726
4060.000000, 96.320, -104.1906
4120.000000, 96.293, -103.6068
4180.000000, 96.268, -103.0613
4250.000000, 96.231, -102.5119
4310.000000, 96.183, -102.0462
4370.000000, 96.114, -101.5568
4440.000000, 96.018, -100.8362
4500.000000, 95.936, -100.1398
4550.000000, 95.874, -99.4782
4620.000000, 95.802, -98.5717
4680.000000, 95.748, -97.8149
4750.000000, 95.686, -96.9969
4820.000000, 95.620, -96.2304
4870.000000, 95.567, -95.7105
4940.000000, 95.483, -94.9491
5000.000000, 95.403, -94.2747
5080.000000, 95.289, -93.3116
5150.000000, 95.186, -92.4197
5220.000000, 95.082, -91.4467
5300.000000, 94.963, -90.3102
5380.000000, 94.845, -89.0803
5450.000000, 94.743, -87.9680
5520.000000, 94.645, -86.8074
5600.000000, 94.537, -85.4085
5700.000000, 94.406, -83.5891
5800.000000, 94.281, -81.6900
5900.000000, 94.162, -79.6687
6000.000000, 94.055, -77.5842
6080.000000, 93.980, -75.7886
6150.000000, 93.926, -74.1485
6220.000000, 93.887, -72.4970
6300.000000, 93.861, -70.5277
6400.000000, 93.857, -68.0695
6500.000000, 93.888, -65.6174
6600.000000, 93.951, -63.2269
6700.000000, 94.046, -60.9445
6800.000000, 94.178, -58.7861
6900.000000, 94.358, -56.7713
7000.000000, 94.586, -54.9117
7100.000000, 94.845, -53.2264
7200.000000, 95.135, -51.7491
7300.000000, 95.462, -50.4527
7400.000000, 95.834, -49.4867
7500.000000, 96.261, -48.9660
7620.000000, 96.857, -49.3396
7750.000000, 97.539, -51.4436
7880.000000, 98.037, -55.6884
8000.000000, 98.200, -61.2501
8120.000000, 97.993, -67.5509
8250.000000, 97.331, -73.9535
8380.000000, 96.306, -78.7107
8500.000000, 95.172, -81.2080
8620.000000, 93.970, -81.8518
8750.000000, 92.676, -80.8705
8850.000000, 91.720, -79.1135
9000.000000, 90.379, -75.3039
9120.000000, 89.396, -71.4762
9250.000000, 88.421, -66.7847
9380.000000, 87.528, -61.5918
9500.000000, 86.773, -56.4939
9620.000000, 86.082, -51.0893
9750.000000, 85.402, -44.9683
9880.000000, 84.790, -38.6556
10000.000000, 84.278, -32.6021
10150.000000, 83.703, -24.8403
10300.000000, 83.193, -16.8508
10440.000000, 82.773, -9.1306
10600.000000, 82.357, -0.0204
10750.000000, 82.028, 8.9134
10900.000000, 81.766, 18.2664
11060.000000, 81.582, 28.9613
11200.000000, 81.538, 39.1315
11380.000000, 81.749, 53.4742
11500.000000, 82.160, 63.7516
11720.000000, 83.700, 82.2512
11800.000000, 84.507, 88.0128
12060.000000, 87.513, 99.9460
12200.000000, 89.063, 102.5008
12410.000000, 91.129, 103.6161
12500.000000, 91.973, 103.5934
12650.000000, 93.435, 102.9312
12800.000000, 95.039, 100.6966
13150.000000, 98.604, 81.8375
13200.000000, 98.891, 77.3533
13400.000000, 98.960, 57.5197
13600.000000, 97.332, 41.0475
13800.000000, 94.813, 32.7456
14000.000000, 92.303, 32.0182
14300.000000, 89.370, 38.9583
14500.000000, 87.982, 46.0816
14750.000000, 86.751, 56.0714
15000.000000, 85.976, 66.4892
15250.000000, 85.609, 76.8568
15500.000000, 85.668, 86.7045
15750.000000, 86.156, 95.3696
16000.000000, 87.014, 101.9033
16250.000000, 88.138, 105.0196
16500.000000, 89.266, 103.2780
16750.000000, 89.948, 96.5399
17000.000000, 89.755, 86.8499
17250.000000, 88.584, 77.6928
17500.000000, 86.610, 71.9127
17750.000000, 84.104, 71.9132
18000.000000, 81.622, 78.8787
18250.000000, 79.786, 89.7522
18500.000000, 78.670, 100.6887
18750.000000, 78.095, 110.8259
19000.000000, 77.879, 120.3896
19250.000000, 77.720, 129.4260
19500.000000, 77.338, 137.9735
19750.000000, 76.668, 146.1291
20000.000000, 75.726, 154.1139
20300.000000, 74.327, 164.0866
20600.000000, 72.814, 175.0358
20900.000000, 71.275, -172.7324
21200.000000, 69.804, -159.6745
21400.000000, 68.870, -151.0485
21800.000000, 66.655, -135.7949
22000.000000, 64.793, -129.6025
22400.000000, 58.379, -121.3517
22700.000000, 51.511, -119.2075
23000.000000, 43.567, -122.5432
23300.000000, 36.134, -90.8492
23600.000000, 32.551, -120.3249
24000.000000, 31.710, 37.6130
