* Measurement data measured by REW V5.31.3
* Source: Headset (DS by VECLAN.COM), MICROPHONE (Master Volume), L, volume: 0.720. Timing signal peak level -14.0 dBFS, measurement signal peak level -13.9 dBFS
* Format: 4M Log Swept Sine, 1 sweep at -29.7 dBFS using an acoustic timing reference
* Dated: Sep 12, 2024 10:58:34 AM
* REW Settings:
*  C-weighting compensation: Off
*  Target level: 85.0 dB
* Note: ; Fosi DS1 Delay -0.0684 ms (-23 mm, -0.92 in) using estimated IR delay relative to Acoustic reference played from SPEAKER R with no timing offset Clock adjustment: -25.7 ppm
* Measurement: Monitoring R
* Smoothing: 1/24 octave
* Frequency Step: 1/48 octave
* Start Frequency: 1.000 Hz
*
* Freq(Hz), SPL(dB), Phase(degrees)
1.000000, 53.876, -0.5000
1.015000, 53.658, -0.3406
1.030000, 53.441, -0.1393
1.044000, 53.240, 0.0929
1.060000, 53.012, 0.4188
1.075000, 52.801, 0.7917
1.090000, 52.592, 1.2392
1.106000, 52.368, 1.8126
1.120000, 52.166, 2.4089
1.138000, 51.893, 3.3159
1.150000, 51.704, 4.0111
1.172000, 51.345, 5.4748
1.180000, 51.212, 6.0661
1.206000, 50.771, 8.2278
1.220000, 50.530, 9.5460
1.241000, 50.170, 11.7265
1.250000, 50.016, 12.7352
1.265000, 49.763, 14.5125
1.280000, 49.513, 16.4056
1.315000, 48.957, 21.2229
1.320000, 48.882, 21.9500
1.340000, 48.591, 24.9301
1.360000, 48.322, 27.9882
1.380000, 48.079, 31.0279
1.400000, 47.865, 34.0075
1.430000, 47.607, 38.2461
1.450000, 47.482, 40.8334
1.475000, 47.384, 43.7962
1.500000, 47.348, 46.6193
1.525000, 47.367, 49.3423
1.550000, 47.437, 51.9059
1.575000, 47.550, 54.2360
1.600000, 47.701, 56.2779
1.625000, 47.883, 58.0363
1.650000, 48.091, 59.4973
1.675000, 48.319, 60.6567
1.700000, 48.560, 61.5168
1.725000, 48.808, 62.0837
1.750000, 49.058, 62.3661
1.775000, 49.303, 62.3595
1.800000, 49.538, 62.0618
1.825000, 49.760, 61.5255
1.850000, 49.974, 60.8238
1.875000, 50.193, 60.0502
1.900000, 50.419, 59.2388
1.925000, 50.654, 58.3947
1.950000, 50.895, 57.5177
1.975000, 51.141, 56.5954
2.000000, 51.393, 55.6150
2.030000, 51.699, 54.3873
2.060000, 52.008, 53.0974
2.090000, 52.318, 51.7401
2.120000, 52.628, 50.3101
2.140000, 52.833, 49.3140
2.180000, 53.238, 47.1999
2.200000, 53.439, 46.0850
2.240000, 53.838, 43.8655
2.270000, 54.140, 42.2572
2.300000, 54.443, 40.7049
2.330000, 54.747, 39.2050
2.360000, 55.051, 37.7512
2.400000, 55.455, 35.8341
2.430000, 55.757, 34.4256
2.470000, 56.156, 32.5793
2.500000, 56.453, 31.2089
2.540000, 56.843, 29.3909
2.580000, 57.226, 27.5803
2.620000, 57.607, 25.8121
2.650000, 57.890, 24.5495
2.690000, 58.265, 22.9458
2.720000, 58.543, 21.7967
2.760000, 58.911, 20.3272
2.800000, 59.273, 18.8791
2.850000, 59.718, 17.1251
2.900000, 60.151, 15.4197
2.950000, 60.574, 13.7615
3.000000, 60.986, 12.1583
3.040000, 61.309, 10.9339
3.070000, 61.547, 10.0523
3.110000, 61.859, 8.9193
3.150000, 62.166, 7.8278
3.200000, 62.541, 6.4800
3.250000, 62.908, 5.1562
3.300000, 63.266, 3.8628
3.350000, 63.614, 2.6122
3.400000, 63.954, 1.3912
3.450000, 64.284, 0.2127
3.500000, 64.606, -0.9188
3.550000, 64.921, -2.0104
3.600000, 65.228, -3.0968
3.650000, 65.529, -4.1696
3.700000, 65.823, -5.2175
3.750000, 66.109, -6.2342
3.820000, 66.497, -7.6296
3.870000, 66.767, -8.5949
3.950000, 67.184, -10.0829
4.000000, 67.437, -11.0079
4.060000, 67.733, -12.1064
4.120000, 68.020, -13.1781
4.180000, 68.298, -14.2254
4.250000, 68.612, -15.4348
4.310000, 68.872, -16.4355
4.370000, 69.126, -17.4100
4.440000, 69.412, -18.5463
4.500000, 69.649, -19.5001
4.550000, 69.840, -20.2773
4.620000, 70.100, -21.3572
4.680000, 70.316, -22.2560
4.750000, 70.561, -23.2667
4.820000, 70.796, -24.2677
4.870000, 70.960, -24.9724
4.940000, 71.180, -25.9337
5.000000, 71.364, -26.7441
5.080000, 71.600, -27.7906
5.150000, 71.801, -28.6637
5.220000, 71.994, -29.5277
5.300000, 72.207, -30.4894
5.380000, 72.411, -31.4114
5.450000, 72.585, -32.1979
5.520000, 72.754, -32.9440
5.600000, 72.939, -33.7694
5.700000, 73.162, -34.7668
5.800000, 73.378, -35.7067
5.900000, 73.588, -36.5962
6.000000, 73.793, -37.4319
6.080000, 73.952, -38.0751
6.150000, 74.090, -38.6084
6.220000, 74.227, -39.1337
6.300000, 74.381, -39.7072
6.400000, 74.570, -40.3904
6.500000, 74.758, -41.0533
6.600000, 74.945, -41.6940
6.700000, 75.132, -42.3247
6.800000, 75.318, -42.9347
6.900000, 75.502, -43.5440
7.000000, 75.684, -44.1476
7.100000, 75.864, -44.7527
7.200000, 76.042, -45.3530
7.300000, 76.218, -45.9629
7.400000, 76.392, -46.5760
7.500000, 76.565, -47.1975
7.620000, 76.768, -47.9476
7.750000, 76.981, -48.7698
7.880000, 77.187, -49.6108
8.000000, 77.371, -50.3847
8.120000, 77.548, -51.1622
8.250000, 77.734, -52.0058
8.380000, 77.912, -52.8361
8.500000, 78.069, -53.5906
8.620000, 78.220, -54.3303
8.750000, 78.378, -55.1094
8.850000, 78.496, -55.6912
9.000000, 78.667, -56.5314
9.120000, 78.802, -57.1818
9.250000, 78.945, -57.8616
9.380000, 79.085, -58.5147
9.500000, 79.214, -59.1084
9.620000, 79.342, -59.6851
9.750000, 79.479, -60.2978
9.880000, 79.607, -60.9019
10.000000, 79.716, -61.4477
10.150000, 79.842, -62.1527
10.300000, 79.958, -62.8453
10.440000, 80.059, -63.4824
10.600000, 80.169, -64.1976
10.750000, 80.269, -64.8558
10.900000, 80.366, -65.4988
11.060000, 80.467, -66.1924
11.200000, 80.553, -66.8235
11.380000, 80.659, -67.5950
11.500000, 80.725, -68.0819
11.720000, 80.842, -68.9142
11.800000, 80.884, -69.1961
12.060000, 81.025, -70.0629
12.200000, 81.106, -70.5259
12.410000, 81.230, -71.1769
12.500000, 81.284, -71.4439
12.650000, 81.374, -71.8760
12.800000, 81.464, -72.2975
13.150000, 81.679, -73.3120
13.200000, 81.710, -73.4654
13.400000, 81.834, -74.0787
13.600000, 81.957, -74.6886
13.800000, 82.076, -75.2921
14.000000, 82.191, -75.8882
14.300000, 82.357, -76.8211
14.500000, 82.463, -77.4211
14.750000, 82.589, -78.1413
15.000000, 82.712, -78.8307
15.250000, 82.836, -79.5375
15.500000, 82.958, -80.2090
15.750000, 83.074, -80.8376
16.000000, 83.186, -81.4193
16.250000, 83.298, -81.9985
16.500000, 83.411, -82.5365
16.750000, 83.528, -83.0455
17.000000, 83.649, -83.5480
17.250000, 83.774, -84.0906
17.500000, 83.898, -84.6524
17.750000, 84.017, -85.2268
18.000000, 84.131, -85.8040
18.250000, 84.237, -86.3922
18.500000, 84.337, -86.9426
18.750000, 84.436, -87.4403
19.000000, 84.536, -87.8871
19.250000, 84.642, -88.3274
19.500000, 84.755, -88.7565
19.750000, 84.871, -89.1974
20.000000, 84.989, -89.6671
20.299999, 85.126, -90.3041
20.600000, 85.252, -90.9630
20.900000, 85.366, -91.6063
21.200001, 85.470, -92.2175
21.400000, 85.535, -92.5932
21.799999, 85.665, -93.2586
22.000000, 85.731, -93.5630
22.400000, 85.867, -94.1807
22.700001, 85.969, -94.6459
23.000000, 86.066, -95.1124
23.299999, 86.158, -95.5789
23.600000, 86.245, -96.0139
24.000000, 86.359, -96.5301
24.299999, 86.448, -96.8963
24.700001, 86.572, -97.3686
25.000000, 86.668, -97.7337
25.400000, 86.796, -98.2744
25.799999, 86.917, -98.8510
26.200001, 87.030, -99.4566
26.500000, 87.108, -99.9147
26.900000, 87.206, -100.4942
27.200001, 87.275, -100.9019
27.600000, 87.367, -101.3980
28.000000, 87.462, -101.8431
28.500000, 87.590, -102.3963
29.000000, 87.727, -102.9769
29.500000, 87.863, -103.6185
30.000000, 87.989, -104.2972
30.400000, 88.081, -104.8539
30.700001, 88.147, -105.2543
31.100000, 88.231, -105.7598
31.500000, 88.314, -106.2386
32.000000, 88.417, -106.7981
32.500000, 88.521, -107.3411
33.000000, 88.624, -107.8780
33.500000, 88.724, -108.4371
34.000000, 88.820, -108.9818
34.500000, 88.915, -109.4952
35.000000, 89.010, -109.9909
35.500000, 89.105, -110.5059
36.000000, 89.196, -111.0365
36.500000, 89.280, -111.5635
37.000000, 89.360, -112.0545
37.500000, 89.441, -112.5253
38.200001, 89.558, -113.1870
38.700001, 89.641, -113.6845
39.500000, 89.764, -114.4738
40.000000, 89.837, -114.9313
40.599998, 89.925, -115.4660
41.200001, 90.016, -115.9786
41.799999, 90.109, -116.4959
42.500000, 90.213, -117.1215
43.099998, 90.296, -117.6478
43.700001, 90.377, -118.1325
44.400002, 90.473, -118.7008
45.000000, 90.550, -119.2073
45.500000, 90.607, -119.5997
46.200001, 90.689, -120.0902
46.799999, 90.769, -120.5289
47.500000, 90.862, -121.1411
48.200001, 90.934, -121.7989
48.700001, 90.977, -122.2056
49.400002, 91.043, -122.6783
50.000000, 91.113, -123.0854
50.799999, 91.207, -123.7183
51.500000, 91.278, -124.3124
52.200001, 91.341, -124.8734
53.000000, 91.407, -125.4207
53.799999, 91.472, -125.8881
54.500000, 91.539, -126.2332
55.200001, 91.617, -126.6032
56.000000, 91.708, -127.1484
57.000000, 91.796, -127.9265
58.000000, 91.860, -128.6462
59.000000, 91.924, -129.3159
60.000000, 91.975, -129.9517
60.799999, 92.018, -130.4027
61.500000, 92.067, -130.7793
62.200001, 92.117, -131.1885
63.000000, 92.170, -131.6493
64.000000, 92.244, -132.1315
65.000000, 92.321, -132.7295
66.000000, 92.387, -133.3212
67.000000, 92.446, -133.8179
68.000000, 92.499, -134.3202
69.000000, 92.551, -134.7205
70.000000, 92.622, -135.1690
71.000000, 92.679, -135.8210
72.000000, 92.712, -136.4281
73.000000, 92.747, -136.9301
74.000000, 92.785, -137.4430
75.000000, 92.825, -137.9441
76.199997, 92.875, -138.5314
77.500000, 92.928, -139.1174
78.800003, 92.981, -139.6619
80.000000, 93.028, -140.1877
81.199997, 93.072, -140.7128
82.500000, 93.115, -141.2860
83.800003, 93.155, -141.8108
85.000000, 93.193, -142.2799
86.199997, 93.230, -142.7648
87.500000, 93.269, -143.2275
88.500000, 93.299, -143.5937
90.000000, 93.341, -144.1778
91.199997, 93.371, -144.6761
92.500000, 93.400, -145.1258
93.800003, 93.429, -145.5544
95.000000, 93.456, -145.9790
96.199997, 93.479, -146.3673
97.500000, 93.503, -146.7508
98.800003, 93.525, -147.1598
100.000000, 93.542, -147.5585
101.500000, 93.562, -148.0779
103.000000, 93.581, -148.5515
104.400002, 93.601, -148.9548
106.000000, 93.625, -149.4011
107.500000, 93.646, -149.8032
109.000000, 93.662, -150.1909
110.599998, 93.672, -150.6494
112.000000, 93.679, -150.9873
113.800003, 93.697, -151.4054
115.000000, 93.707, -151.7208
117.199997, 93.722, -152.2500
118.000000, 93.729, -152.4168
120.599998, 93.748, -152.9745
122.000000, 93.753, -153.2832
124.099998, 93.762, -153.7705
125.000000, 93.768, -153.9859
126.500000, 93.781, -154.2792
128.000000, 93.795, -154.6075
131.500000, 93.805, -155.2904
132.000000, 93.802, -155.3908
134.000000, 93.783, -155.7851
136.000000, 93.772, -156.1599
138.000000, 93.780, -156.4628
140.000000, 93.807, -156.7006
143.000000, 93.824, -157.1258
145.000000, 93.814, -157.4362
147.500000, 93.806, -157.8556
150.000000, 93.805, -158.1607
152.500000, 93.794, -158.4063
155.000000, 93.776, -158.6147
157.500000, 93.772, -158.8494
160.000000, 93.768, -159.0711
162.500000, 93.770, -159.2522
165.000000, 93.767, -159.4994
167.500000, 93.766, -159.6290
170.000000, 93.786, -159.6028
172.500000, 93.815, -159.7348
175.000000, 93.841, -160.0511
177.500000, 93.858, -160.4131
180.000000, 93.862, -160.7723
182.500000, 93.851, -161.0469
185.000000, 93.836, -161.2657
187.500000, 93.823, -161.4147
190.000000, 93.808, -161.6270
192.500000, 93.793, -161.8846
195.000000, 93.784, -162.0559
197.500000, 93.778, -162.2063
200.000000, 93.762, -162.3459
203.000000, 93.734, -162.4709
206.000000, 93.717, -162.6022
209.000000, 93.703, -162.7689
212.000000, 93.688, -162.9115
214.000000, 93.679, -162.9929
218.000000, 93.657, -163.1358
220.000000, 93.646, -163.2011
224.000000, 93.629, -163.2812
227.000000, 93.617, -163.3647
230.000000, 93.603, -163.4553
233.000000, 93.587, -163.5201
236.000000, 93.571, -163.5631
240.000000, 93.551, -163.6025
243.000000, 93.535, -163.6356
247.000000, 93.512, -163.6829
250.000000, 93.497, -163.7118
254.000000, 93.477, -163.7222
258.000000, 93.455, -163.7169
262.000000, 93.433, -163.7188
265.000000, 93.416, -163.7162
269.000000, 93.392, -163.6910
272.000000, 93.375, -163.6529
276.000000, 93.356, -163.6013
280.000000, 93.338, -163.5436
285.000000, 93.320, -163.4627
290.000000, 93.303, -163.3802
295.000000, 93.287, -163.2735
300.000000, 93.273, -163.1460
304.000000, 93.264, -163.1025
307.000000, 93.257, -163.0484
311.000000, 93.247, -162.9481
315.000000, 93.236, -162.8316
320.000000, 93.219, -162.6980
325.000000, 93.203, -162.5580
330.000000, 93.190, -162.4133
335.000000, 93.175, -162.2523
340.000000, 93.159, -162.0939
345.000000, 93.142, -161.9170
350.000000, 93.127, -161.7375
355.000000, 93.113, -161.5579
360.000000, 93.097, -161.3547
365.000000, 93.081, -161.1443
370.000000, 93.065, -160.9496
375.000000, 93.050, -160.7555
382.000000, 93.030, -160.4458
387.000000, 93.016, -160.2135
395.000000, 92.993, -159.8489
400.000000, 92.980, -159.6214
406.000000, 92.966, -159.3415
412.000000, 92.950, -159.0610
418.000000, 92.934, -158.7728
425.000000, 92.916, -158.4257
431.000000, 92.902, -158.0951
437.000000, 92.888, -157.7898
444.000000, 92.872, -157.4302
450.000000, 92.859, -157.1157
455.000000, 92.849, -156.8424
462.000000, 92.836, -156.4649
468.000000, 92.826, -156.1487
475.000000, 92.814, -155.7600
482.000000, 92.805, -155.3617
487.000000, 92.799, -155.0831
494.000000, 92.794, -154.6777
500.000000, 92.789, -154.3298
508.000000, 92.783, -153.8533
515.000000, 92.776, -153.4379
522.000000, 92.772, -153.0251
530.000000, 92.768, -152.5344
538.000000, 92.765, -152.0387
545.000000, 92.764, -151.6190
552.000000, 92.763, -151.1870
560.000000, 92.764, -150.6777
570.000000, 92.765, -150.0436
580.000000, 92.767, -149.4008
590.000000, 92.772, -148.7488
600.000000, 92.776, -148.1217
608.000000, 92.778, -147.5908
615.000000, 92.780, -147.1220
622.000000, 92.781, -146.6460
630.000000, 92.784, -146.1201
640.000000, 92.789, -145.4426
650.000000, 92.796, -144.7570
660.000000, 92.804, -144.0809
670.000000, 92.813, -143.3917
680.000000, 92.825, -142.7055
690.000000, 92.838, -142.0085
700.000000, 92.854, -141.3080
710.000000, 92.871, -140.5923
720.000000, 92.891, -139.8907
730.000000, 92.912, -139.1793
740.000000, 92.934, -138.4695
750.000000, 92.957, -137.7454
762.000000, 92.988, -136.8705
775.000000, 93.024, -135.9412
788.000000, 93.062, -135.0042
800.000000, 93.102, -134.1385
812.000000, 93.144, -133.2832
825.000000, 93.194, -132.3544
838.000000, 93.247, -131.4376
850.000000, 93.298, -130.6075
862.000000, 93.351, -129.7783
875.000000, 93.411, -128.8930
885.000000, 93.460, -128.2254
900.000000, 93.535, -127.2282
912.000000, 93.599, -126.4483
925.000000, 93.674, -125.6355
938.000000, 93.753, -124.8417
950.000000, 93.828, -124.1086
962.000000, 93.903, -123.4130
975.000000, 93.984, -122.6893
988.000000, 94.062, -121.9589
1000.000000, 94.133, -121.3072
1015.000000, 94.225, -120.5343
1030.000000, 94.317, -119.7895
1044.000000, 94.403, -119.1231
1060.000000, 94.501, -118.3965
1075.000000, 94.593, -117.7408
1090.000000, 94.690, -117.1179
1106.000000, 94.802, -116.4809
1120.000000, 94.902, -115.9477
1138.000000, 95.029, -115.2992
1150.000000, 95.111, -114.8850
1172.000000, 95.258, -114.1380
1180.000000, 95.310, -113.8816
1206.000000, 95.477, -113.0726
1220.000000, 95.568, -112.6465
1241.000000, 95.703, -112.0347
1250.000000, 95.760, -111.7770
1265.000000, 95.854, -111.3397
1280.000000, 95.946, -110.9201
1315.000000, 96.154, -109.9500
1320.000000, 96.183, -109.8137
1340.000000, 96.288, -109.2720
1360.000000, 96.372, -108.7250
1380.000000, 96.454, -108.1848
1400.000000, 96.548, -107.6401
1430.000000, 96.691, -106.8266
1450.000000, 96.785, -106.2772
1475.000000, 96.904, -105.6038
1500.000000, 97.021, -104.9322
1525.000000, 97.135, -104.2641
1550.000000, 97.243, -103.6022
1575.000000, 97.348, -102.9418
1600.000000, 97.452, -102.2737
1625.000000, 97.555, -101.6230
1650.000000, 97.658, -100.9741
1675.000000, 97.761, -100.3323
1700.000000, 97.864, -99.6944
1725.000000, 97.965, -99.0678
1750.000000, 98.066, -98.4467
1775.000000, 98.168, -97.8454
1800.000000, 98.269, -97.2519
1825.000000, 98.370, -96.6683
1850.000000, 98.470, -96.1026
1875.000000, 98.570, -95.5474
1900.000000, 98.669, -95.0105
1925.000000, 98.766, -94.4860
1950.000000, 98.862, -93.9801
1975.000000, 98.957, -93.4879
2000.000000, 99.051, -93.0162
2030.000000, 99.162, -92.4648
2060.000000, 99.272, -91.9425
2090.000000, 99.379, -91.4418
2120.000000, 99.484, -90.9619
2140.000000, 99.553, -90.6538
2180.000000, 99.686, -90.0651
2200.000000, 99.748, -89.7886
2240.000000, 99.865, -89.2544
2270.000000, 99.945, -88.8607
2300.000000, 100.020, -88.4662
2330.000000, 100.088, -88.0591
2360.000000, 100.149, -87.6337
2400.000000, 100.224, -86.9976
2430.000000, 100.282, -86.4394
2470.000000, 100.373, -85.5906
2500.000000, 100.461, -84.9212
2540.000000, 100.608, -84.1442
2580.000000, 100.770, -83.6519
2620.000000, 100.917, -83.4521
2650.000000, 101.006, -83.4123
2690.000000, 101.095, -83.4024
2720.000000, 101.143, -83.3835
2760.000000, 101.189, -83.3113
2800.000000, 101.218, -83.1810
2850.000000, 101.239, -82.9399
2900.000000, 101.249, -82.6164
2950.000000, 101.250, -82.2181
3000.000000, 101.246, -81.7608
3040.000000, 101.239, -81.3624
3070.000000, 101.232, -81.0398
3110.000000, 101.220, -80.5866
3150.000000, 101.207, -80.1114
3200.000000, 101.189, -79.4987
3250.000000, 101.169, -78.8727
3300.000000, 101.144, -78.2313
3350.000000, 101.114, -77.5863
3400.000000, 101.079, -76.9260
3450.000000, 101.043, -76.2589
3500.000000, 101.002, -75.5919
3550.000000, 100.950, -74.9102
3600.000000, 100.881, -74.1819
3650.000000, 100.794, -73.3502
3700.000000, 100.695, -72.3356
3750.000000, 100.598, -71.1031
3820.000000, 100.493, -69.0869
3870.000000, 100.447, -67.5614
3950.000000, 100.414, -65.1797
4000.000000, 100.408, -63.7712
4060.000000, 100.410, -62.1488
4120.000000, 100.417, -60.5927
4180.000000, 100.429, -59.1104
4250.000000, 100.441, -57.4820
4310.000000, 100.442, -56.1521
4370.000000, 100.428, -54.8624
4440.000000, 100.397, -53.3729
4500.000000, 100.362, -52.0832
4550.000000, 100.331, -50.9931
4620.000000, 100.286, -49.4421
4680.000000, 100.250, -48.1045
4750.000000, 100.208, -46.5572
4820.000000, 100.164, -45.0371
4870.000000, 100.130, -43.9684
4940.000000, 100.077, -42.4644
5000.000000, 100.028, -41.1650
5080.000000, 99.957, -39.4115
5150.000000, 99.893, -37.8558
5220.000000, 99.828, -36.2954
5300.000000, 99.750, -34.5138
5380.000000, 99.667, -32.7310
5450.000000, 99.589, -31.1507
5520.000000, 99.506, -29.5339
5600.000000, 99.406, -27.6348
5700.000000, 99.277, -25.1572
5800.000000, 99.146, -22.5648
5900.000000, 99.018, -19.8462
6000.000000, 98.897, -17.0123
6080.000000, 98.807, -14.6595
6150.000000, 98.738, -12.5452
6220.000000, 98.677, -10.3915
6300.000000, 98.620, -7.8837
6400.000000, 98.567, -4.7021
6500.000000, 98.538, -1.4685
6600.000000, 98.533, 1.7696
6700.000000, 98.555, 4.9824
6800.000000, 98.609, 8.1606
6900.000000, 98.710, 11.2764
7000.000000, 98.861, 14.3212
7100.000000, 99.051, 17.2858
7200.000000, 99.282, 20.1470
7300.000000, 99.562, 22.8248
7400.000000, 99.901, 25.1837
7500.000000, 100.301, 27.0436
7620.000000, 100.863, 28.3019
7750.000000, 101.507, 28.0161
7880.000000, 101.978, 25.7119
8000.000000, 102.146, 21.9860
8120.000000, 101.975, 17.4490
8250.000000, 101.375, 12.7813
8380.000000, 100.412, 9.4739
8500.000000, 99.319, 8.1840
8620.000000, 98.137, 8.6364
8750.000000, 96.844, 10.8610
8850.000000, 95.876, 13.5729
9000.000000, 94.502, 18.9002
9120.000000, 93.480, 24.0112
9250.000000, 92.457, 30.1995
9380.000000, 91.517, 36.9479
9500.000000, 90.717, 43.5935
9620.000000, 89.979, 50.5842
9750.000000, 89.248, 58.5155
9880.000000, 88.585, 66.8027
10000.000000, 88.027, 74.7763
10150.000000, 87.396, 85.2258
10300.000000, 86.847, 96.3302
10440.000000, 86.426, 107.4311
10600.000000, 86.106, 121.1959
10750.000000, 86.063, 135.2112
10900.000000, 86.402, 149.8851
11060.000000, 87.276, 164.7860
11200.000000, 88.387, 175.5872
11380.000000, 89.952, -174.7406
11500.000000, 90.890, -170.4992
11720.000000, 92.221, -164.7972
11800.000000, 92.604, -162.7981
12060.000000, 93.745, -155.3309
12200.000000, 94.445, -150.7681
12410.000000, 95.795, -144.1162
12500.000000, 96.520, -141.7530
12650.000000, 97.946, -139.3199
12800.000000, 99.574, -139.9547
13150.000000, 102.434, -158.4684
13200.000000, 102.512, -162.5743
13400.000000, 101.712, -178.3859
13600.000000, 99.576, 171.9760
13800.000000, 97.036, 170.3698
14000.000000, 94.756, 174.6682
14300.000000, 92.173, -173.3150
14500.000000, 90.936, -163.6456
14750.000000, 89.811, -150.8184
15000.000000, 89.067, -137.7499
15250.000000, 88.659, -124.7885
15500.000000, 88.609, -112.1935
15750.000000, 88.941, -100.2602
16000.000000, 89.657, -89.7507
16250.000000, 90.717, -82.1208
16500.000000, 91.901, -79.0346
16750.000000, 92.796, -81.0976
17000.000000, 92.947, -86.9009
17250.000000, 92.123, -93.0224
17500.000000, 90.520, -95.9787
17750.000000, 88.582, -94.4065
18000.000000, 86.688, -89.1264
18250.000000, 84.998, -81.8270
18500.000000, 83.465, -74.0183
18750.000000, 81.875, -66.1674
19000.000000, 80.018, -56.6013
19250.000000, 78.030, -42.6859
19500.000000, 76.358, -25.0676
19750.000000, 75.179, -7.4692
20000.000000, 74.178, 8.4282
20300.000000, 72.894, 26.2012
20600.000000, 71.548, 43.9255
20900.000000, 70.147, 62.2286
21200.000000, 68.724, 80.9395
21400.000000, 67.774, 93.2393
21800.000000, 65.782, 115.8574
22000.000000, 64.630, 125.4543
22400.000000, 61.570, 140.3113
22700.000000, 58.222, 148.2762
23000.000000, 53.708, 155.0027
23300.000000, 47.985, 161.6592
23600.000000, 41.298, 168.8603
24000.000000, 33.777, -172.5610
