* Measurement data measured by REW V5.31.1
* Source: Headset (DS by VECLAN.COM), MICROPHONE (Master Volume), L, volume: 0.720. Timing signal peak level -14.3 dBFS, measurement signal peak level -14.2 dBFS
* Format: 2M Log Swept Sine, 1 sweep at -12.0 dBFS using an acoustic timing reference
* Dated: Jul 16, 2024 9:38:11 PM
* REW Settings:
*  C-weighting compensation: Off
*  Target level: 85.0 dB
* Note: ; Delay -0.0676 ms (-23 mm, -0.91 in) using estimated IR delay relative to Acoustic reference played from HEADPHONE L with no timing offset
* Measurement: Natural L
* Smoothing: 1/24 octave
* Frequency Step: 1/48 octave
* Start Frequency: 1.000 Hz
*
* Freq(Hz), SPL(dB), Phase(degrees)
1.000000, 54.929, 47.4206
1.015000, 54.958, 48.7581
1.030000, 54.994, 50.0385
1.044000, 55.032, 51.1752
1.060000, 55.084, 52.3976
1.075000, 55.139, 53.4631
1.090000, 55.201, 54.4480
1.106000, 55.278, 55.4266
1.120000, 55.357, 56.2562
1.138000, 55.477, 57.3064
1.150000, 55.567, 57.9941
1.172000, 55.752, 59.2121
1.180000, 55.824, 59.6340
1.206000, 56.078, 60.9418
1.220000, 56.223, 61.6002
1.241000, 56.450, 62.5199
1.250000, 56.550, 62.8874
1.265000, 56.719, 63.4627
1.280000, 56.889, 63.9894
1.315000, 57.287, 65.0195
1.320000, 57.344, 65.1432
1.340000, 57.564, 65.5769
1.360000, 57.777, 65.9126
1.380000, 57.978, 66.1086
1.400000, 58.165, 66.1859
1.430000, 58.411, 66.1015
1.450000, 58.548, 65.9096
1.475000, 58.688, 65.5342
1.500000, 58.796, 65.0639
1.525000, 58.878, 64.5314
1.550000, 58.937, 63.9450
1.575000, 58.978, 63.2869
1.600000, 59.004, 62.5424
1.625000, 59.019, 61.7517
1.650000, 59.026, 60.9150
1.675000, 59.028, 60.0314
1.700000, 59.030, 59.0992
1.725000, 59.035, 58.1160
1.750000, 59.046, 57.0790
1.775000, 59.068, 55.9677
1.800000, 59.104, 54.7620
1.825000, 59.155, 53.4946
1.850000, 59.221, 52.1747
1.875000, 59.294, 50.8241
1.900000, 59.373, 49.4584
1.925000, 59.457, 48.0874
1.950000, 59.546, 46.7185
1.975000, 59.638, 45.3399
2.000000, 59.735, 43.9387
2.030000, 59.856, 42.2746
2.060000, 59.982, 40.6280
2.090000, 60.112, 38.9974
2.120000, 60.245, 37.3799
2.140000, 60.335, 36.3068
2.180000, 60.520, 34.1456
2.200000, 60.615, 33.0471
2.240000, 60.810, 30.8644
2.270000, 60.964, 29.2547
2.300000, 61.123, 27.6789
2.330000, 61.286, 26.1432
2.360000, 61.453, 24.6511
2.400000, 61.679, 22.6845
2.430000, 61.850, 21.2562
2.470000, 62.080, 19.4202
2.500000, 62.251, 18.0911
2.540000, 62.477, 16.3764
2.580000, 62.701, 14.7010
2.620000, 62.925, 13.0422
2.650000, 63.094, 11.8377
2.690000, 63.320, 10.2882
2.720000, 63.490, 9.1707
2.760000, 63.717, 7.7432
2.800000, 63.941, 6.3453
2.850000, 64.219, 4.6869
2.900000, 64.491, 3.1286
2.950000, 64.756, 1.6600
3.000000, 65.017, 0.2373
3.040000, 65.222, -0.8587
3.070000, 65.374, -1.6491
3.110000, 65.575, -2.6605
3.150000, 65.773, -3.6240
3.200000, 66.017, -4.7929
3.250000, 66.258, -5.9052
3.300000, 66.495, -6.9497
3.350000, 66.729, -7.9303
3.400000, 66.958, -8.8866
3.450000, 67.183, -9.8030
3.500000, 67.405, -10.6689
3.550000, 67.624, -11.4866
3.600000, 67.840, -12.2859
3.650000, 68.054, -13.0536
3.700000, 68.266, -13.7778
3.750000, 68.474, -14.4585
3.820000, 68.762, -15.3827
3.870000, 68.964, -16.0124
3.950000, 69.284, -16.9670
4.000000, 69.482, -17.5578
4.060000, 69.718, -18.2495
4.120000, 69.952, -18.9027
4.180000, 70.184, -19.5280
4.250000, 70.451, -20.2588
4.310000, 70.677, -20.8662
4.370000, 70.901, -21.4674
4.440000, 71.158, -22.1880
4.500000, 71.376, -22.7862
4.550000, 71.555, -23.2705
4.620000, 71.803, -23.9614
4.680000, 72.013, -24.5526
4.750000, 72.253, -25.2389
4.820000, 72.490, -25.9430
4.870000, 72.657, -26.4435
4.940000, 72.886, -27.1330
5.000000, 73.080, -27.7313
5.080000, 73.332, -28.5352
5.150000, 73.548, -29.2346
5.220000, 73.758, -29.9518
5.300000, 73.992, -30.7703
5.380000, 74.220, -31.5795
5.450000, 74.414, -32.2969
5.520000, 74.604, -33.0042
5.600000, 74.814, -33.8154
5.700000, 75.069, -34.8318
5.800000, 75.314, -35.8310
5.900000, 75.550, -36.8241
6.000000, 75.778, -37.8059
6.080000, 75.953, -38.5917
6.150000, 76.103, -39.2608
6.220000, 76.249, -39.9290
6.300000, 76.411, -40.6787
6.400000, 76.607, -41.6018
6.500000, 76.797, -42.5132
6.600000, 76.981, -43.3966
6.700000, 77.159, -44.2663
6.800000, 77.331, -45.1149
6.900000, 77.498, -45.9472
7.000000, 77.661, -46.7518
7.100000, 77.820, -47.5409
7.200000, 77.975, -48.3082
7.300000, 78.126, -49.0593
7.400000, 78.275, -49.7880
7.500000, 78.419, -50.5063
7.620000, 78.589, -51.3413
7.750000, 78.769, -52.2136
7.880000, 78.946, -53.0627
8.000000, 79.106, -53.8183
8.120000, 79.263, -54.5547
8.250000, 79.431, -55.3311
8.380000, 79.597, -56.0843
8.500000, 79.749, -56.7662
8.620000, 79.899, -57.4313
8.750000, 80.060, -58.1371
8.850000, 80.183, -58.6717
9.000000, 80.367, -59.4556
9.120000, 80.512, -60.0760
9.250000, 80.669, -60.7445
9.380000, 80.825, -61.4056
9.500000, 80.967, -62.0169
9.620000, 81.109, -62.6238
9.750000, 81.260, -63.2799
9.880000, 81.401, -63.9413
10.000000, 81.521, -64.5489
10.150000, 81.659, -65.3437
10.300000, 81.785, -66.1309
10.440000, 81.895, -66.8591
10.600000, 82.014, -67.6807
10.750000, 82.121, -68.4392
10.900000, 82.225, -69.1839
11.060000, 82.332, -69.9827
11.200000, 82.423, -70.7006
11.380000, 82.532, -71.5858
11.500000, 82.601, -72.1496
11.720000, 82.720, -73.1221
11.800000, 82.763, -73.4538
12.060000, 82.901, -74.4773
12.200000, 82.979, -75.0218
12.410000, 83.098, -75.7826
12.500000, 83.149, -76.0917
12.650000, 83.236, -76.5876
12.800000, 83.324, -77.0675
13.150000, 83.535, -78.2141
13.200000, 83.566, -78.3880
13.400000, 83.689, -79.0865
13.600000, 83.811, -79.7891
13.800000, 83.929, -80.4920
14.000000, 84.041, -81.1879
14.300000, 84.198, -82.2663
14.500000, 84.295, -82.9398
14.750000, 84.413, -83.7176
15.000000, 84.532, -84.4302
15.250000, 84.660, -85.1492
15.500000, 84.794, -85.8460
15.750000, 84.929, -86.5400
16.000000, 85.062, -87.2470
16.250000, 85.191, -88.0102
16.500000, 85.314, -88.7708
16.750000, 85.428, -89.5062
17.000000, 85.538, -90.2006
17.250000, 85.646, -90.8725
17.500000, 85.756, -91.4978
17.750000, 85.867, -92.0897
18.000000, 85.983, -92.6734
18.250000, 86.101, -93.2904
18.500000, 86.217, -93.9318
18.750000, 86.329, -94.5925
19.000000, 86.434, -95.2602
19.250000, 86.532, -95.9381
19.500000, 86.622, -96.5803
19.750000, 86.707, -97.1716
20.000000, 86.789, -97.7075
20.299999, 86.891, -98.3193
20.600000, 86.997, -98.8897
20.900000, 87.109, -99.4508
21.200001, 87.223, -100.0465
21.400000, 87.298, -100.4642
21.799999, 87.441, -101.3262
22.000000, 87.508, -101.7644
22.400000, 87.634, -102.6608
22.700001, 87.721, -103.3052
23.000000, 87.804, -103.9173
23.299999, 87.885, -104.5130
23.600000, 87.965, -105.0752
24.000000, 88.075, -105.7804
24.299999, 88.160, -106.3062
24.700001, 88.278, -107.0014
25.000000, 88.368, -107.5313
25.400000, 88.487, -108.2840
25.799999, 88.600, -109.0601
26.200001, 88.704, -109.8472
26.500000, 88.776, -110.4278
26.900000, 88.866, -111.1593
27.200001, 88.931, -111.6785
27.600000, 89.017, -112.3333
28.000000, 89.104, -112.9562
28.500000, 89.214, -113.7334
29.000000, 89.323, -114.5134
29.500000, 89.428, -115.3161
30.000000, 89.525, -116.1159
30.400000, 89.596, -116.7475
30.700001, 89.647, -117.2005
31.100000, 89.716, -117.7820
31.500000, 89.789, -118.3638
32.000000, 89.882, -119.1059
32.500000, 89.972, -119.8910
33.000000, 90.054, -120.6685
33.500000, 90.132, -121.4100
34.000000, 90.214, -122.1139
34.500000, 90.299, -122.8296
35.000000, 90.379, -123.5511
35.500000, 90.450, -124.2380
36.000000, 90.520, -124.8645
36.500000, 90.594, -125.4826
37.000000, 90.664, -126.1277
37.500000, 90.719, -126.7519
38.200001, 90.789, -127.4180
38.700001, 90.865, -127.8235
39.500000, 91.018, -128.8036
40.000000, 91.088, -129.6461
40.599998, 91.129, -130.6178
41.200001, 91.158, -131.3696
41.799999, 91.205, -132.0275
42.500000, 91.266, -132.8444
43.099998, 91.312, -133.5041
43.700001, 91.369, -134.1021
44.400002, 91.449, -134.8876
45.000000, 91.502, -135.6588
45.500000, 91.529, -136.2686
46.200001, 91.563, -136.9963
46.799999, 91.601, -137.6048
47.500000, 91.636, -138.3500
48.200001, 91.663, -139.0090
48.700001, 91.691, -139.4167
49.400002, 91.749, -140.0044
50.000000, 91.809, -140.5849
50.799999, 91.889, -141.4675
51.500000, 91.947, -142.2858
52.200001, 91.991, -143.0282
53.000000, 92.042, -143.7374
53.799999, 92.094, -144.4232
54.500000, 92.126, -144.9746
55.200001, 92.151, -145.4618
56.000000, 92.162, -145.9975
57.000000, 92.155, -146.2733
58.000000, 92.264, -146.4638
59.000000, 92.382, -147.7696
60.000000, 92.357, -149.1930
60.799999, 92.335, -149.9145
61.500000, 92.341, -150.5140
62.200001, 92.352, -151.1206
63.000000, 92.371, -151.7584
64.000000, 92.403, -152.5294
65.000000, 92.430, -153.2353
66.000000, 92.456, -153.8862
67.000000, 92.466, -154.5141
68.000000, 92.470, -155.0496
69.000000, 92.480, -155.5835
70.000000, 92.488, -156.1935
71.000000, 92.493, -156.8009
72.000000, 92.506, -157.4670
73.000000, 92.509, -158.1821
74.000000, 92.509, -158.8690
75.000000, 92.497, -159.5644
76.199997, 92.471, -160.1304
77.500000, 92.495, -160.6569
78.800003, 92.514, -161.4671
80.000000, 92.500, -162.2099
81.199997, 92.474, -162.7513
82.500000, 92.473, -163.2684
83.800003, 92.477, -163.9254
85.000000, 92.474, -164.5951
86.199997, 92.464, -165.2300
87.500000, 92.466, -165.8597
88.500000, 92.481, -166.3836
90.000000, 92.467, -167.4301
91.199997, 92.403, -167.8590
92.500000, 92.387, -167.9655
93.800003, 92.395, -168.2449
95.000000, 92.398, -168.6150
96.199997, 92.382, -169.0889
97.500000, 92.344, -169.6162
98.800003, 92.297, -170.1149
100.000000, 92.257, -170.5430
101.500000, 92.227, -171.0260
103.000000, 92.224, -171.5775
104.400002, 92.211, -172.1346
106.000000, 92.188, -172.5979
107.500000, 92.164, -172.9622
109.000000, 92.132, -173.3141
110.599998, 92.098, -173.6921
112.000000, 92.070, -174.0617
113.800003, 92.036, -174.5353
115.000000, 92.013, -174.8400
117.199997, 91.957, -175.3609
118.000000, 91.932, -175.5150
120.599998, 91.873, -175.9500
122.000000, 91.854, -176.3225
124.099998, 91.819, -176.9053
125.000000, 91.801, -177.1140
126.500000, 91.773, -177.3829
128.000000, 91.746, -177.6203
131.500000, 91.672, -178.2359
132.000000, 91.661, -178.3171
134.000000, 91.626, -178.6025
136.000000, 91.604, -178.8218
138.000000, 91.585, -179.1176
140.000000, 91.535, -179.4676
143.000000, 91.457, -179.8703
145.000000, 91.418, 179.8586
147.500000, 91.371, 179.5405
150.000000, 91.318, 179.2263
152.500000, 91.265, 178.8859
155.000000, 91.220, 178.6711
157.500000, 91.169, 178.5097
160.000000, 91.092, 178.3024
162.500000, 91.023, 178.1379
165.000000, 90.990, 177.9625
167.500000, 90.946, 177.8510
170.000000, 90.887, 177.7780
172.500000, 90.825, 177.6007
175.000000, 90.771, 177.5205
177.500000, 90.738, 177.6622
180.000000, 90.704, 177.7997
182.500000, 90.677, 177.8663
185.000000, 90.659, 177.7064
187.500000, 90.631, 177.4872
190.000000, 90.596, 177.3384
192.500000, 90.553, 177.2237
195.000000, 90.504, 177.1425
197.500000, 90.459, 177.1168
200.000000, 90.427, 177.1122
203.000000, 90.399, 177.0453
206.000000, 90.363, 176.8992
209.000000, 90.320, 176.7779
212.000000, 90.275, 176.6823
214.000000, 90.246, 176.6400
218.000000, 90.189, 176.5889
220.000000, 90.154, 176.6129
224.000000, 90.074, 176.6855
227.000000, 90.031, 176.7392
230.000000, 89.997, 176.8055
233.000000, 89.956, 176.8709
236.000000, 89.905, 176.8678
240.000000, 89.846, 176.8911
243.000000, 89.803, 176.8621
247.000000, 89.744, 176.9116
250.000000, 89.705, 177.0091
254.000000, 89.651, 177.1067
258.000000, 89.597, 177.1947
262.000000, 89.549, 177.3376
265.000000, 89.516, 177.4452
269.000000, 89.471, 177.5911
272.000000, 89.441, 177.7215
276.000000, 89.406, 177.8684
280.000000, 89.371, 178.0233
285.000000, 89.330, 178.2109
290.000000, 89.282, 178.4413
295.000000, 89.234, 178.6414
300.000000, 89.189, 178.8319
304.000000, 89.156, 178.9968
307.000000, 89.132, 179.1340
311.000000, 89.099, 179.3395
315.000000, 89.068, 179.5495
320.000000, 89.034, 179.7975
325.000000, 89.001, -179.9541
330.000000, 88.966, -179.7077
335.000000, 88.930, -179.4586
340.000000, 88.896, -179.2050
345.000000, 88.862, -178.9367
350.000000, 88.825, -178.6387
355.000000, 88.787, -178.3581
360.000000, 88.750, -178.0746
365.000000, 88.724, -177.8010
370.000000, 88.697, -177.5195
375.000000, 88.667, -177.2273
382.000000, 88.627, -176.8117
387.000000, 88.599, -176.5235
395.000000, 88.554, -176.0591
400.000000, 88.525, -175.7416
406.000000, 88.491, -175.3494
412.000000, 88.460, -174.9999
418.000000, 88.431, -174.6334
425.000000, 88.402, -174.2150
431.000000, 88.377, -173.8433
437.000000, 88.352, -173.4635
444.000000, 88.323, -173.0186
450.000000, 88.298, -172.6589
455.000000, 88.279, -172.3391
462.000000, 88.252, -171.8954
468.000000, 88.230, -171.5020
475.000000, 88.206, -171.0553
482.000000, 88.184, -170.6060
487.000000, 88.170, -170.2851
494.000000, 88.152, -169.8222
500.000000, 88.137, -169.4357
508.000000, 88.119, -168.9080
515.000000, 88.104, -168.4335
522.000000, 88.089, -167.9650
530.000000, 88.074, -167.4451
538.000000, 88.060, -166.9163
545.000000, 88.051, -166.4469
552.000000, 88.041, -165.9760
560.000000, 88.031, -165.4438
570.000000, 88.021, -164.7640
580.000000, 88.014, -164.0876
590.000000, 88.007, -163.3938
600.000000, 88.000, -162.7027
608.000000, 87.994, -162.1577
615.000000, 87.989, -161.6767
622.000000, 87.985, -161.1956
630.000000, 87.980, -160.6427
640.000000, 87.976, -159.9417
650.000000, 87.974, -159.2437
660.000000, 87.974, -158.5466
670.000000, 87.976, -157.8469
680.000000, 87.980, -157.1438
690.000000, 87.986, -156.4179
700.000000, 87.994, -155.7009
710.000000, 88.004, -154.9944
720.000000, 88.016, -154.2755
730.000000, 88.032, -153.5648
740.000000, 88.049, -152.8507
750.000000, 88.068, -152.1239
762.000000, 88.093, -151.2656
775.000000, 88.123, -150.3461
788.000000, 88.155, -149.4259
800.000000, 88.188, -148.5881
812.000000, 88.224, -147.7361
825.000000, 88.268, -146.8340
838.000000, 88.315, -145.9354
850.000000, 88.361, -145.1102
862.000000, 88.411, -144.3058
875.000000, 88.467, -143.4511
885.000000, 88.513, -142.7951
900.000000, 88.586, -141.8406
912.000000, 88.647, -141.0998
925.000000, 88.716, -140.3132
938.000000, 88.787, -139.5574
950.000000, 88.855, -138.8686
962.000000, 88.924, -138.2203
975.000000, 88.999, -137.5236
988.000000, 89.074, -136.8519
1000.000000, 89.145, -136.2564
1015.000000, 89.234, -135.5492
1030.000000, 89.325, -134.8868
1044.000000, 89.410, -134.2994
1060.000000, 89.507, -133.6469
1075.000000, 89.598, -133.0705
1090.000000, 89.694, -132.5423
1106.000000, 89.804, -132.0036
1120.000000, 89.903, -131.5610
1138.000000, 90.027, -131.0254
1150.000000, 90.107, -130.6855
1172.000000, 90.250, -130.0876
1180.000000, 90.301, -129.8876
1206.000000, 90.463, -129.2578
1220.000000, 90.551, -128.9212
1241.000000, 90.682, -128.4563
1250.000000, 90.738, -128.2593
1265.000000, 90.828, -127.9416
1280.000000, 90.916, -127.6264
1315.000000, 91.121, -126.8954
1320.000000, 91.150, -126.7978
1340.000000, 91.256, -126.4135
1360.000000, 91.336, -125.9927
1380.000000, 91.410, -125.5872
1400.000000, 91.497, -125.1763
1430.000000, 91.633, -124.5718
1450.000000, 91.721, -124.1703
1475.000000, 91.829, -123.6494
1500.000000, 91.935, -123.1294
1525.000000, 92.039, -122.6294
1550.000000, 92.137, -122.1028
1575.000000, 92.233, -121.5908
1600.000000, 92.328, -121.0648
1625.000000, 92.423, -120.5291
1650.000000, 92.520, -119.9872
1675.000000, 92.619, -119.4430
1700.000000, 92.721, -118.9022
1725.000000, 92.826, -118.4079
1750.000000, 92.930, -117.9224
1775.000000, 93.033, -117.4916
1800.000000, 93.134, -117.0723
1825.000000, 93.233, -116.6546
1850.000000, 93.331, -116.2527
1875.000000, 93.428, -115.8621
1900.000000, 93.525, -115.4748
1925.000000, 93.621, -115.1022
1950.000000, 93.717, -114.7330
1975.000000, 93.813, -114.3885
2000.000000, 93.908, -114.0572
2030.000000, 94.022, -113.6811
2060.000000, 94.134, -113.3246
2090.000000, 94.245, -112.9736
2120.000000, 94.356, -112.6642
2140.000000, 94.429, -112.4851
2180.000000, 94.573, -112.1054
2200.000000, 94.643, -111.9411
2240.000000, 94.777, -111.6368
2270.000000, 94.874, -111.4227
2300.000000, 94.968, -111.2342
2330.000000, 95.060, -111.0645
2360.000000, 95.149, -110.9035
2400.000000, 95.263, -110.7423
2430.000000, 95.344, -110.6310
2470.000000, 95.448, -110.4918
2500.000000, 95.522, -110.4124
2540.000000, 95.614, -110.3162
2580.000000, 95.700, -110.2354
2620.000000, 95.779, -110.1655
2650.000000, 95.834, -110.1233
2690.000000, 95.900, -110.0409
2720.000000, 95.945, -110.0024
2760.000000, 95.996, -109.9349
2800.000000, 96.040, -109.8528
2850.000000, 96.086, -109.7293
2900.000000, 96.123, -109.5598
2950.000000, 96.152, -109.3303
3000.000000, 96.178, -109.0233
3040.000000, 96.202, -108.7077
3070.000000, 96.226, -108.4525
3110.000000, 96.268, -108.1130
3150.000000, 96.318, -107.8178
3200.000000, 96.384, -107.5768
3250.000000, 96.438, -107.4468
3300.000000, 96.478, -107.3319
3350.000000, 96.505, -107.2359
3400.000000, 96.526, -107.1031
3450.000000, 96.546, -106.9499
3500.000000, 96.567, -106.7952
3550.000000, 96.586, -106.6303
3600.000000, 96.599, -106.5236
3650.000000, 96.602, -106.4126
3700.000000, 96.593, -106.2838
3750.000000, 96.572, -106.1130
3820.000000, 96.528, -105.7624
3870.000000, 96.490, -105.4301
3950.000000, 96.429, -104.7630
4000.000000, 96.397, -104.2836
4060.000000, 96.364, -103.7154
4120.000000, 96.336, -103.1377
4180.000000, 96.310, -102.5878
4250.000000, 96.277, -102.0322
4310.000000, 96.233, -101.5786
4370.000000, 96.170, -101.1282
4440.000000, 96.074, -100.4756
4500.000000, 95.987, -99.8331
4550.000000, 95.919, -99.1958
4620.000000, 95.838, -98.2848
4680.000000, 95.779, -97.5039
4750.000000, 95.716, -96.6552
4820.000000, 95.652, -95.8670
4870.000000, 95.601, -95.3411
4940.000000, 95.521, -94.5852
5000.000000, 95.444, -93.9259
5080.000000, 95.331, -92.9935
5150.000000, 95.227, -92.1286
5220.000000, 95.121, -91.1738
5300.000000, 94.998, -90.0464
5380.000000, 94.876, -88.8186
5450.000000, 94.771, -87.7026
5520.000000, 94.672, -86.5345
5600.000000, 94.562, -85.1277
5700.000000, 94.430, -83.2969
5800.000000, 94.304, -81.3799
5900.000000, 94.186, -79.3354
6000.000000, 94.081, -77.2279
6080.000000, 94.009, -75.4187
6150.000000, 93.958, -73.7706
6220.000000, 93.922, -72.1167
6300.000000, 93.898, -70.1528
6400.000000, 93.898, -67.7094
6500.000000, 93.931, -65.2762
6600.000000, 93.996, -62.9049
6700.000000, 94.094, -60.6398
6800.000000, 94.227, -58.4949
6900.000000, 94.409, -56.4913
7000.000000, 94.638, -54.6439
7100.000000, 94.899, -52.9711
7200.000000, 95.191, -51.5075
7300.000000, 95.521, -50.2283
7400.000000, 95.898, -49.2878
7500.000000, 96.329, -48.8078
7620.000000, 96.929, -49.2564
7750.000000, 97.609, -51.4695
7880.000000, 98.095, -55.8270
8000.000000, 98.240, -61.4594
8120.000000, 98.010, -67.7703
8250.000000, 97.326, -74.1117
8380.000000, 96.287, -78.7614
8500.000000, 95.146, -81.1459
8620.000000, 93.945, -81.6853
8750.000000, 92.656, -80.6101
8850.000000, 91.705, -78.7956
9000.000000, 90.373, -74.9242
9120.000000, 89.397, -71.0632
9250.000000, 88.429, -66.3490
9380.000000, 87.543, -61.1436
9500.000000, 86.794, -56.0391
9620.000000, 86.108, -50.6302
9750.000000, 85.433, -44.5062
9880.000000, 84.827, -38.1926
10000.000000, 84.321, -32.1392
10150.000000, 83.752, -24.3784
10300.000000, 83.249, -16.3888
10440.000000, 82.835, -8.6706
10600.000000, 82.424, 0.4382
10750.000000, 82.101, 9.3697
10900.000000, 81.846, 18.7202
11060.000000, 81.670, 29.4037
11200.000000, 81.634, 39.5587
11380.000000, 81.855, 53.8789
11500.000000, 82.273, 64.1387
11720.000000, 83.830, 82.5954
11800.000000, 84.643, 88.3394
12060.000000, 87.675, 100.2017
12200.000000, 89.242, 102.6975
12410.000000, 91.343, 103.6668
12500.000000, 92.204, 103.5462
12650.000000, 93.698, 102.6388
12800.000000, 95.332, 99.9928
13150.000000, 98.803, 79.6564
13200.000000, 99.051, 75.0149
13400.000000, 98.928, 55.0678
13600.000000, 97.153, 39.2646
13800.000000, 94.587, 31.8268
14000.000000, 92.102, 31.7231
14300.000000, 89.234, 39.1104
14500.000000, 87.882, 46.3643
14750.000000, 86.686, 56.4428
15000.000000, 85.940, 66.9080
15250.000000, 85.598, 77.2960
15500.000000, 85.682, 87.1301
15750.000000, 86.191, 95.7379
16000.000000, 87.066, 102.1806
16250.000000, 88.201, 105.1687
16500.000000, 89.330, 103.2595
16750.000000, 89.996, 96.3742
17000.000000, 89.777, 86.6482
17250.000000, 88.582, 77.5708
17500.000000, 86.595, 71.9430
17750.000000, 84.092, 72.1166
18000.000000, 81.627, 79.1766
18250.000000, 79.807, 90.0691
18500.000000, 78.702, 101.0330
18750.000000, 78.138, 111.1898
19000.000000, 77.932, 120.7488
19250.000000, 77.782, 129.7756
19500.000000, 77.408, 138.3135
19750.000000, 76.746, 146.4695
20000.000000, 75.810, 154.4720
20300.000000, 74.423, 164.4715
20600.000000, 72.922, 175.4443
20900.000000, 71.397, -172.3020
21200.000000, 69.946, -159.2042
21400.000000, 69.027, -150.5209
21800.000000, 66.845, -135.1001
22000.000000, 64.997, -128.8240
22400.000000, 58.601, -120.1701
22700.000000, 51.744, -116.3887
23000.000000, 43.809, -114.7770
23300.000000, 36.394, -67.1051
23600.000000, 32.709, -161.7617
24000.000000, 31.360, -46.8148
