* Measurement data measured by REW V5.20.13
* Source: Headset (DS by VECLAN.COM), MICROPHONE (Master Volume), L, volume: 0.720. Timing signal peak level -8.9 dBFS, measurement signal peak level -8.9 dBFS
* Format: 2M Log Swept Sine, 1 sweep at -12.0 dBFS using an acoustic timing reference
* Dated: Jan 22, 2024 2:58:30 PM
* REW Settings:
*  C-weighting compensation: Off
*  Target level: 75.0 dB
* Note: ; Delay -0.0688 ms (-24 mm, -0.93 in) using estimated IR delay relative to Acoustic reference played from HEADPHONE L with no timing offset
* Measurement: TIN T2 S2 L
* Smoothing: 1/24 octave
* Frequency Step: 1/48 octave
* Start Frequency: 1.000 Hz
*
* Freq(Hz) SPL(dB) Phase(degrees)
1.000000 62.441 -91.9902
1.015000 62.424 -94.2272
1.030000 62.416 -96.3910
1.044000 62.419 -98.3339
1.060000 62.434 -100.4515
1.075000 62.459 -102.3248
1.090000 62.498 -104.0777
1.106000 62.554 -105.8181
1.120000 62.623 -107.3159
1.138000 62.740 -109.2275
1.150000 62.834 -110.4893
1.172000 63.034 -112.7668
1.180000 63.115 -113.5811
1.206000 63.404 -116.1649
1.220000 63.573 -117.5099
1.241000 63.840 -119.4560
1.250000 63.958 -120.2610
1.265000 64.159 -121.5601
1.280000 64.362 -122.8016
1.315000 64.836 -125.4479
1.320000 64.902 -125.7946
1.340000 65.162 -127.0963
1.360000 65.410 -128.2527
1.380000 65.640 -129.2524
1.400000 65.847 -130.0840
1.430000 66.107 -130.9910
1.450000 66.240 -131.3520
1.475000 66.351 -131.5029
1.500000 66.408 -131.2656
1.525000 66.419 -130.6628
1.550000 66.391 -129.7336
1.575000 66.332 -128.5171
1.600000 66.248 -127.0526
1.625000 66.147 -125.3792
1.650000 66.036 -123.5361
1.675000 65.922 -121.5626
1.700000 65.812 -119.4977
1.725000 65.715 -117.3806
1.750000 65.636 -115.2505
1.775000 65.583 -113.1467
1.800000 65.563 -111.1082
1.825000 65.584 -109.1743
1.850000 65.643 -107.2972
1.875000 65.720 -105.3007
1.900000 65.814 -103.1979
1.925000 65.925 -101.0106
1.950000 66.050 -98.7606
1.975000 66.190 -96.4698
2.000000 66.343 -94.1600
2.030000 66.544 -91.3940
2.060000 66.761 -88.6699
2.090000 66.994 -86.0254
2.120000 67.241 -83.4984
2.140000 67.413 -81.8975
2.180000 67.771 -78.9473
2.200000 67.958 -77.6198
2.240000 68.367 -75.1428
2.270000 68.708 -73.3985
2.300000 69.073 -71.7520
2.330000 69.455 -70.2039
2.360000 69.851 -68.7548
2.400000 70.389 -66.9775
2.430000 70.795 -65.7615
2.470000 71.327 -64.2970
2.500000 71.713 -63.3171
2.540000 72.200 -62.1694
2.580000 72.648 -61.2146
2.620000 73.078 -60.5263
2.650000 73.392 -60.1750
2.690000 73.801 -59.8929
2.720000 74.100 -59.7984
2.760000 74.488 -59.7953
2.800000 74.864 -59.8945
2.850000 75.318 -60.0990
2.900000 75.754 -60.3174
2.950000 76.172 -60.4902
3.000000 76.569 -60.7508
3.040000 76.872 -61.0376
3.070000 77.092 -61.2905
3.110000 77.375 -61.6680
3.150000 77.648 -62.0807
3.200000 77.976 -62.6275
3.250000 78.291 -63.1863
3.300000 78.594 -63.7337
3.350000 78.883 -64.2881
3.400000 79.156 -64.8713
3.450000 79.414 -65.4802
3.500000 79.659 -66.1116
3.550000 79.893 -66.7623
3.600000 80.116 -67.4293
3.650000 80.331 -68.1094
3.700000 80.537 -68.8105
3.750000 80.731 -69.5507
3.820000 80.983 -70.6280
3.870000 81.152 -71.4080
3.950000 81.405 -72.6356
4.000000 81.554 -73.3684
4.060000 81.725 -74.1953
4.120000 81.882 -74.9854
4.180000 82.028 -75.7478
4.250000 82.185 -76.6102
4.310000 82.310 -77.3324
4.370000 82.429 -78.0451
4.440000 82.560 -78.8737
4.500000 82.662 -79.5841
4.550000 82.741 -80.1689
4.620000 82.843 -80.9639
4.680000 82.926 -81.6117
4.750000 83.019 -82.3135
4.820000 83.107 -82.9481
4.870000 83.165 -83.3663
4.940000 83.242 -83.9103
5.000000 83.304 -84.3448
5.080000 83.385 -84.8900
5.150000 83.457 -85.3439
5.220000 83.527 -85.7658
5.300000 83.604 -86.2084
5.380000 83.680 -86.6166
5.450000 83.749 -86.9518
5.520000 83.821 -87.2699
5.600000 83.904 -87.5956
5.700000 84.011 -87.9615
5.800000 84.121 -88.3139
5.900000 84.237 -88.6817
6.000000 84.358 -89.0428
6.080000 84.457 -89.3332
6.150000 84.546 -89.5980
6.220000 84.634 -89.8807
6.300000 84.737 -90.2265
6.400000 84.868 -90.6824
6.500000 84.999 -91.1647
6.600000 85.128 -91.6738
6.700000 85.255 -92.2136
6.800000 85.380 -92.7811
6.900000 85.502 -93.3682
7.000000 85.620 -93.9694
7.100000 85.733 -94.5952
7.200000 85.843 -95.2345
7.300000 85.948 -95.8705
7.400000 86.049 -96.4964
7.500000 86.145 -97.1222
7.620000 86.255 -97.8610
7.750000 86.371 -98.6317
7.880000 86.480 -99.3772
8.000000 86.579 -100.0398
8.120000 86.676 -100.6722
8.250000 86.780 -101.3232
8.380000 86.883 -101.9475
8.500000 86.979 -102.5052
8.620000 87.075 -103.0409
8.750000 87.179 -103.6070
8.850000 87.259 -104.0381
9.000000 87.379 -104.6717
9.120000 87.475 -105.1723
9.250000 87.578 -105.7127
9.380000 87.682 -106.2491
9.500000 87.773 -106.7398
9.620000 87.860 -107.2278
9.750000 87.950 -107.7528
9.880000 88.030 -108.2646
10.000000 88.094 -108.7247
10.150000 88.163 -109.2825
10.300000 88.221 -109.8026
10.440000 88.266 -110.2530
10.600000 88.312 -110.7291
10.750000 88.356 -111.1345
10.900000 88.399 -111.5048
11.060000 88.447 -111.8785
11.200000 88.492 -112.1849
11.380000 88.551 -112.5614
11.500000 88.592 -112.8012
11.720000 88.669 -113.2313
11.800000 88.699 -113.3890
12.060000 88.800 -113.9073
12.200000 88.855 -114.2048
12.410000 88.940 -114.6717
12.500000 88.974 -114.8783
12.650000 89.030 -115.2332
12.800000 89.083 -115.5946
13.150000 89.193 -116.4502
13.200000 89.208 -116.5706
13.400000 89.263 -117.0484
13.600000 89.315 -117.5065
13.800000 89.365 -117.9388
14.000000 89.415 -118.3499
14.300000 89.490 -118.9323
14.500000 89.543 -119.3087
14.750000 89.612 -119.7879
15.000000 89.685 -120.2880
15.250000 89.761 -120.8288
15.500000 89.834 -121.3935
15.750000 89.902 -121.9679
16.000000 89.963 -122.5214
16.250000 90.021 -123.0333
16.500000 90.079 -123.4994
16.750000 90.143 -123.9183
17.000000 90.215 -124.3240
17.250000 90.295 -124.7404
17.500000 90.382 -125.1996
17.750000 90.467 -125.7171
18.000000 90.545 -126.2801
18.250000 90.612 -126.8732
18.500000 90.667 -127.4437
18.750000 90.711 -127.9630
19.000000 90.749 -128.4044
19.250000 90.786 -128.7589
19.500000 90.827 -129.0456
19.750000 90.874 -129.2802
20.000000 90.926 -129.4981
20.299999 90.994 -129.7578
20.600000 91.064 -130.0245
20.900000 91.134 -130.2930
21.200001 91.206 -130.5541
21.400000 91.257 -130.7310
21.799999 91.367 -131.1378
22.000000 91.425 -131.3945
22.400000 91.535 -132.0638
22.700001 91.601 -132.6947
23.000000 91.645 -133.3811
23.299999 91.663 -134.0370
23.600000 91.663 -134.5890
24.000000 91.650 -135.0893
24.299999 91.649 -135.2951
24.700001 91.674 -135.4348
25.000000 91.715 -135.5294
25.400000 91.792 -135.7386
25.799999 91.878 -136.0832
26.200001 91.960 -136.5386
26.500000 92.016 -136.9191
26.900000 92.083 -137.4390
27.200001 92.127 -137.8190
27.600000 92.182 -138.3008
28.000000 92.233 -138.7557
28.500000 92.293 -139.3021
29.000000 92.345 -139.8290
29.500000 92.388 -140.3087
30.000000 92.425 -140.7087
30.400000 92.458 -140.9874
30.700001 92.486 -141.1991
31.100000 92.524 -141.5176
31.500000 92.557 -141.8777
32.000000 92.584 -142.3204
32.500000 92.604 -142.6644
33.000000 92.636 -142.9195
33.500000 92.690 -143.2101
34.000000 92.750 -143.6392
34.500000 92.797 -144.1589
35.000000 92.826 -144.6337
35.500000 92.856 -144.9921
36.000000 92.900 -145.3053
36.500000 92.953 -145.6811
37.000000 92.998 -146.1330
37.500000 93.026 -146.5728
38.200001 93.055 -147.0384
38.700001 93.082 -147.3009
39.500000 93.131 -147.7612
40.000000 93.156 -148.0769
40.599998 93.180 -148.4539
41.200001 93.195 -148.8158
41.799999 93.203 -149.1212
42.500000 93.216 -149.3496
43.099998 93.248 -149.4999
43.700001 93.297 -149.7339
44.400002 93.352 -150.1604
45.000000 93.385 -150.5944
45.500000 93.399 -150.9387
46.200001 93.409 -151.3099
46.799999 93.425 -151.5088
47.500000 93.466 -151.7396
48.200001 93.516 -152.1274
48.700001 93.540 -152.4790
49.400002 93.555 -152.9377
50.000000 93.562 -153.2388
50.799999 93.580 -153.5548
51.500000 93.607 -153.8243
52.200001 93.638 -154.1271
53.000000 93.668 -154.4961
53.799999 93.690 -154.8148
54.500000 93.709 -155.0313
55.200001 93.732 -155.2263
56.000000 93.759 -155.4541
57.000000 93.792 -155.7734
58.000000 93.815 -156.1930
59.000000 93.821 -156.5577
60.000000 93.852 -156.8768
60.799999 93.883 -157.2892
61.500000 93.894 -157.6420
62.200001 93.907 -157.8433
63.000000 93.951 -157.9644
64.000000 94.047 -158.3115
65.000000 94.099 -159.0504
66.000000 94.048 -159.4972
67.000000 94.011 -159.2355
68.000000 94.043 -159.0514
69.000000 94.065 -159.2003
70.000000 94.065 -159.4418
71.000000 94.056 -159.6946
72.000000 94.062 -159.9047
73.000000 94.088 -160.2211
74.000000 94.106 -160.6200
75.000000 94.118 -160.8962
76.199997 94.145 -161.1511
77.500000 94.160 -161.4543
78.800003 94.159 -161.6262
80.000000 94.160 -161.7739
81.199997 94.157 -161.9033
82.500000 94.167 -161.9942
83.800003 94.199 -162.1601
85.000000 94.235 -162.4203
86.199997 94.263 -162.8090
87.500000 94.266 -163.1997
88.500000 94.269 -163.3638
90.000000 94.294 -163.5938
91.199997 94.312 -163.7965
92.500000 94.328 -163.9551
93.800003 94.339 -164.1261
95.000000 94.330 -164.2605
96.199997 94.326 -164.2598
97.500000 94.356 -164.4039
98.800003 94.372 -164.8044
100.000000 94.366 -165.0957
101.500000 94.366 -165.2358
103.000000 94.387 -165.3215
104.400002 94.405 -165.4875
106.000000 94.411 -165.7966
107.500000 94.407 -166.1188
109.000000 94.414 -166.3189
110.599998 94.459 -166.4287
112.000000 94.493 -166.6508
113.800003 94.484 -166.7523
115.000000 94.485 -166.9381
117.199997 94.382 -167.7150
118.000000 94.331 -167.7702
120.599998 94.357 -167.5458
122.000000 94.430 -167.6296
124.099998 94.471 -167.8011
125.000000 94.467 -167.7642
126.500000 94.466 -167.6806
128.000000 94.478 -167.8014
131.500000 94.497 -168.4230
132.000000 94.499 -168.4580
134.000000 94.517 -168.4380
136.000000 94.538 -168.4073
138.000000 94.560 -168.5257
140.000000 94.585 -168.8438
143.000000 94.617 -169.0904
145.000000 94.645 -169.1130
147.500000 94.622 -169.2630
150.000000 94.595 -169.3582
152.500000 94.631 -169.5025
155.000000 94.681 -169.5812
157.500000 94.702 -169.6980
160.000000 94.700 -169.9182
162.500000 94.699 -170.0639
165.000000 94.701 -170.2764
167.500000 94.638 -170.4274
170.000000 94.663 -170.5075
172.500000 94.706 -170.8224
175.000000 94.695 -171.1068
177.500000 94.689 -171.7225
180.000000 94.700 -172.4055
182.500000 94.710 -172.1336
185.000000 94.715 -171.2147
187.500000 94.692 -170.8968
190.000000 94.672 -171.1726
192.500000 94.693 -171.4604
195.000000 94.724 -171.5084
197.500000 94.730 -171.5457
200.000000 94.712 -171.7079
203.000000 94.664 -171.9784
206.000000 94.621 -172.2229
209.000000 94.612 -172.3393
212.000000 94.623 -172.2955
214.000000 94.627 -172.2589
218.000000 94.640 -172.3302
220.000000 94.649 -172.4712
224.000000 94.663 -172.7859
227.000000 94.678 -172.9139
230.000000 94.678 -172.9550
233.000000 94.651 -173.0767
236.000000 94.625 -173.3377
240.000000 94.633 -173.7233
243.000000 94.640 -173.9135
247.000000 94.626 -174.0368
250.000000 94.617 -174.1334
254.000000 94.609 -174.3558
258.000000 94.611 -174.5132
262.000000 94.616 -174.4058
265.000000 94.599 -174.3630
269.000000 94.574 -174.5111
272.000000 94.575 -174.6250
276.000000 94.586 -174.6530
280.000000 94.580 -174.6903
285.000000 94.545 -174.7684
290.000000 94.559 -174.7439
295.000000 94.563 -174.9334
300.000000 94.539 -175.4156
304.000000 94.527 -175.7031
307.000000 94.532 -175.5557
311.000000 94.568 -175.1799
315.000000 94.573 -174.9954
320.000000 94.512 -175.0679
325.000000 94.477 -175.4117
330.000000 94.477 -175.6424
335.000000 94.466 -175.5350
340.000000 94.454 -175.4947
345.000000 94.436 -175.5304
350.000000 94.396 -175.5600
355.000000 94.361 -175.6750
360.000000 94.345 -175.8650
365.000000 94.350 -176.0089
370.000000 94.358 -176.0542
375.000000 94.336 -175.9415
382.000000 94.265 -175.7918
387.000000 94.244 -175.7619
395.000000 94.224 -175.6724
400.000000 94.188 -175.5909
406.000000 94.147 -175.5129
412.000000 94.110 -175.4552
418.000000 94.081 -175.4296
425.000000 94.048 -175.4400
431.000000 94.028 -175.3510
437.000000 94.005 -175.2246
444.000000 93.965 -175.1144
450.000000 93.922 -175.0321
455.000000 93.884 -174.9886
462.000000 93.850 -174.9306
468.000000 93.829 -174.8428
475.000000 93.792 -174.6917
482.000000 93.740 -174.5575
487.000000 93.706 -174.4852
494.000000 93.671 -174.3537
500.000000 93.648 -174.2347
508.000000 93.613 -174.1943
515.000000 93.584 -174.0574
522.000000 93.549 -173.8531
530.000000 93.507 -173.6440
538.000000 93.470 -173.3565
545.000000 93.439 -173.0739
552.000000 93.402 -172.8111
560.000000 93.357 -172.5851
570.000000 93.312 -172.2323
580.000000 93.272 -171.9017
590.000000 93.228 -171.5769
600.000000 93.165 -170.9523
608.000000 93.158 -170.4983
615.000000 93.175 -170.2310
622.000000 93.190 -169.7996
630.000000 93.197 -169.0450
640.000000 93.173 -168.7742
650.000000 93.065 -168.6004
660.000000 92.986 -168.1425
670.000000 92.930 -167.7753
680.000000 92.857 -167.6169
690.000000 92.814 -167.3615
700.000000 92.767 -166.9223
710.000000 92.735 -166.4366
720.000000 92.717 -165.9562
730.000000 92.653 -165.5341
740.000000 92.611 -165.2582
750.000000 92.618 -164.9066
762.000000 92.590 -164.1419
775.000000 92.556 -163.2190
788.000000 92.542 -162.3984
800.000000 92.510 -161.6627
812.000000 92.473 -160.8110
825.000000 92.451 -160.0038
838.000000 92.451 -159.3533
850.000000 92.427 -158.7043
862.000000 92.387 -157.8672
875.000000 92.350 -157.1087
885.000000 92.339 -156.6624
900.000000 92.329 -155.8268
912.000000 92.311 -155.0951
925.000000 92.302 -154.2135
938.000000 92.316 -153.2772
950.000000 92.346 -152.4466
962.000000 92.383 -151.6806
975.000000 92.423 -150.8707
988.000000 92.458 -150.0471
1000.000000 92.490 -149.3153
1015.000000 92.554 -148.3960
1030.000000 92.633 -147.5238
1044.000000 92.709 -146.8169
1060.000000 92.793 -146.1767
1075.000000 92.861 -145.7083
1090.000000 92.919 -145.3052
1106.000000 92.975 -144.8920
1120.000000 93.019 -144.5362
1138.000000 93.068 -144.0478
1150.000000 93.096 -143.6964
1172.000000 93.146 -143.0656
1180.000000 93.164 -142.8334
1206.000000 93.221 -142.0582
1220.000000 93.252 -141.6394
1241.000000 93.300 -141.0049
1250.000000 93.319 -140.7312
1265.000000 93.349 -140.2750
1280.000000 93.378 -139.8150
1315.000000 93.439 -138.6768
1320.000000 93.446 -138.5093
1340.000000 93.475 -137.8597
1360.000000 93.489 -137.1843
1380.000000 93.489 -136.4390
1400.000000 93.500 -135.7313
1430.000000 93.540 -134.6594
1450.000000 93.568 -133.8842
1475.000000 93.606 -132.8911
1500.000000 93.648 -131.8950
1525.000000 93.693 -130.8581
1550.000000 93.732 -129.7916
1575.000000 93.773 -128.7261
1600.000000 93.818 -127.6404
1625.000000 93.868 -126.5306
1650.000000 93.923 -125.4094
1675.000000 93.986 -124.2935
1700.000000 94.052 -123.1828
1725.000000 94.121 -122.0447
1750.000000 94.196 -120.9099
1775.000000 94.277 -119.7823
1800.000000 94.365 -118.6723
1825.000000 94.460 -117.5793
1850.000000 94.562 -116.4998
1875.000000 94.671 -115.4397
1900.000000 94.784 -114.4060
1925.000000 94.900 -113.4022
1950.000000 95.021 -112.4347
1975.000000 95.146 -111.5012
2000.000000 95.275 -110.5957
2030.000000 95.432 -109.5412
2060.000000 95.595 -108.5190
2090.000000 95.764 -107.5341
2120.000000 95.941 -106.5953
2140.000000 96.063 -106.0020
2180.000000 96.317 -104.8925
2200.000000 96.447 -104.3704
2240.000000 96.710 -103.4371
2270.000000 96.913 -102.8499
2300.000000 97.118 -102.3621
2330.000000 97.321 -101.9712
2360.000000 97.522 -101.6710
2400.000000 97.784 -101.3943
2430.000000 97.974 -101.2514
2470.000000 98.226 -101.1222
2500.000000 98.424 -101.0970
2540.000000 98.702 -101.2758
2580.000000 98.975 -101.8330
2620.000000 99.213 -102.7598
2650.000000 99.357 -103.6156
2690.000000 99.500 -104.8586
2720.000000 99.572 -105.8112
2760.000000 99.624 -107.0469
2800.000000 99.633 -108.1929
2850.000000 99.595 -109.4433
2900.000000 99.516 -110.4508
2950.000000 99.405 -111.1951
3000.000000 99.276 -111.6852
3040.000000 99.165 -111.9040
3070.000000 99.079 -111.9701
3110.000000 98.962 -111.9391
3150.000000 98.844 -111.7752
3200.000000 98.700 -111.3877
3250.000000 98.562 -110.8085
3300.000000 98.438 -110.0567
3350.000000 98.334 -109.1770
3400.000000 98.252 -108.2474
3450.000000 98.188 -107.3078
3500.000000 98.134 -106.3374
3550.000000 98.090 -105.3122
3600.000000 98.056 -104.2328
3650.000000 98.036 -103.1116
3700.000000 98.029 -101.9645
3750.000000 98.036 -100.8080
3820.000000 98.071 -99.2017
3870.000000 98.111 -98.0930
3950.000000 98.193 -96.4216
4000.000000 98.255 -95.4519
4060.000000 98.339 -94.3455
4120.000000 98.437 -93.2707
4180.000000 98.559 -92.2411
4250.000000 98.744 -91.2258
4310.000000 98.929 -90.6619
4370.000000 99.121 -90.4844
4440.000000 99.332 -90.8561
4500.000000 99.476 -91.7023
4550.000000 99.543 -92.7313
4620.000000 99.520 -94.4272
4680.000000 99.373 -95.7422
4750.000000 99.090 -96.5844
4820.000000 98.792 -96.7179
4870.000000 98.605 -96.6809
4940.000000 98.363 -96.7054
5000.000000 98.143 -96.8012
5080.000000 97.805 -96.8799
5150.000000 97.465 -96.7412
5220.000000 97.091 -96.3171
5300.000000 96.637 -95.4496
5380.000000 96.165 -94.1602
5450.000000 95.744 -92.6545
5520.000000 95.326 -90.7721
5600.000000 94.870 -88.1789
5700.000000 94.346 -84.3821
5800.000000 93.883 -80.0941
5900.000000 93.484 -75.3877
6000.000000 93.156 -70.3152
6080.000000 92.949 -66.0341
6150.000000 92.813 -62.1526
6220.000000 92.720 -58.1659
6300.000000 92.669 -53.5089
6400.000000 92.691 -47.5912
6500.000000 92.816 -41.6438
6600.000000 93.045 -35.7649
6700.000000 93.382 -30.0590
6800.000000 93.830 -24.5999
6900.000000 94.408 -19.4413
7000.000000 95.124 -14.7179
7100.000000 95.954 -10.6216
7200.000000 96.874 -7.2809
7300.000000 97.875 -4.7865
7400.000000 98.955 -3.2481
7500.000000 100.116 -2.8580
7620.000000 101.611 -4.3892
7750.000000 103.222 -9.4829
7880.000000 104.466 -19.2004
8000.000000 104.955 -31.8811
8120.000000 104.604 -45.3015
8250.000000 103.361 -56.3966
8380.000000 101.637 -61.7525
8500.000000 100.046 -62.5079
8620.000000 98.652 -60.8925
8750.000000 97.366 -57.5304
8850.000000 96.521 -54.1585
9000.000000 95.481 -48.2508
9120.000000 94.833 -43.0481
9250.000000 94.299 -37.1429
9380.000000 93.931 -31.1203
9500.000000 93.733 -25.5773
9620.000000 93.671 -20.1583
9750.000000 93.764 -14.5691
9880.000000 94.023 -9.4572
10000.000000 94.407 -5.3772
10150.000000 95.071 -1.5663
10300.000000 95.890 0.1336
10440.000000 96.675 -0.9346
10600.000000 97.346 -5.8587
10750.000000 97.480 -13.3574
10900.000000 96.973 -21.3411
11060.000000 95.799 -27.4762
11200.000000 94.446 -29.6317
11380.000000 92.598 -28.2670
11500.000000 91.432 -25.3911
11720.000000 89.580 -17.4646
11800.000000 89.008 -13.9904
12060.000000 87.523 -1.3085
12200.000000 86.950 6.0857
12410.000000 86.359 17.5581
12500.000000 86.203 22.5599
12650.000000 86.084 30.9319
12800.000000 86.157 39.2468
13150.000000 87.229 57.4759
13200.000000 87.512 59.7891
13400.000000 89.052 67.4091
13600.000000 91.173 69.9815
13800.000000 93.192 62.7105
14000.000000 93.941 44.4178
14300.000000 91.582 19.6354
14500.000000 88.578 16.7398
14750.000000 84.906 23.7407
15000.000000 82.077 35.9393
15250.000000 80.034 50.3245
15500.000000 78.628 65.7405
15750.000000 77.781 81.6562
16000.000000 77.436 97.6615
16250.000000 77.615 113.0360
16500.000000 78.312 126.6866
16750.000000 79.511 137.5009
17000.000000 81.089 143.0195
17250.000000 82.355 139.5943
17500.000000 82.321 129.2715
17750.000000 80.642 123.4060
18000.000000 78.073 129.7485
18250.000000 76.205 144.2470
18500.000000 75.987 156.8474
18750.000000 76.222 162.3723
19000.000000 75.798 165.6961
19250.000000 74.662 173.1263
19500.000000 73.121 -173.7426
19750.000000 71.573 -156.2101
20000.000000 70.351 -137.0146
20300.000000 69.314 -114.3083
20600.000000 68.655 -91.7307
20900.000000 68.393 -69.9901
21200.000000 68.463 -51.5746
21400.000000 68.491 -43.5107
21800.000000 67.224 -67.6746
22000.000000 65.247 -178.8830
22400.000000 58.127 -40.8081
22700.000000 50.957 91.5161
23000.000000 43.085 176.3740
23300.000000 35.856 90.8945
23600.000000 32.555 -103.3008
24000.000000 32.193 48.7422
