* Measurement data measured by REW V5.20.13
* Source: Headset (DS by VECLAN.COM), MICROPHONE (Master Volume), L, volume: 0.720. Timing signal peak level -17.7 dBFS, measurement signal peak level -15.2 dBFS
* Format: 2M Log Swept Sine, 1 sweep at -12.0 dBFS using an acoustic timing reference
* Dated: Nov 12, 2023 7:23:07 PM
* REW Settings:
*  C-weighting compensation: Off
*  Target level: 75.0 dB
* Note: ; Delay -0.0656 ms (-23 mm, -0.89 in) using estimated IR delay relative to Acoustic reference played from HEADPHONE L with no timing offset
* Measurement: CP145 double filter L
* Smoothing: 1/24 octave
* Frequency Step: 1/48 octave
* Start Frequency: 1.000 Hz
*
* Freq(Hz) SPL(dB) Phase(degrees)
1.000000 70.542 36.1323
1.015000 70.542 36.4036
1.030000 70.545 36.5857
1.044000 70.550 36.6694
1.060000 70.559 36.6563
1.075000 70.572 36.5321
1.090000 70.587 36.2931
1.106000 70.608 35.9018
1.120000 70.628 35.4291
1.138000 70.656 34.6501
1.150000 70.676 34.0309
1.172000 70.716 32.7059
1.180000 70.732 32.1677
1.206000 70.787 30.2337
1.220000 70.820 29.0873
1.241000 70.872 27.2503
1.250000 70.896 26.4253
1.265000 70.937 25.0072
1.280000 70.981 23.5434
1.315000 71.093 20.0016
1.320000 71.110 19.4862
1.340000 71.182 17.4145
1.360000 71.258 15.3433
1.380000 71.339 13.2942
1.400000 71.426 11.2891
1.430000 71.565 8.4115
1.450000 71.664 6.6116
1.475000 71.796 4.5120
1.500000 71.939 2.4177
1.525000 72.092 0.2947
1.550000 72.253 -1.8472
1.575000 72.424 -3.9982
1.600000 72.602 -6.1486
1.625000 72.788 -8.2885
1.650000 72.979 -10.4083
1.675000 73.177 -12.4980
1.700000 73.379 -14.5479
1.725000 73.586 -16.5482
1.750000 73.796 -18.4891
1.775000 74.008 -20.3609
1.800000 74.223 -22.1537
1.825000 74.439 -23.8577
1.850000 74.658 -25.4749
1.875000 74.887 -27.0290
1.900000 75.124 -28.5233
1.925000 75.368 -29.9600
1.950000 75.618 -31.3412
1.975000 75.872 -32.6690
2.000000 76.128 -33.9455
2.030000 76.437 -35.4128
2.060000 76.746 -36.8130
2.090000 77.051 -38.1499
2.120000 77.350 -39.4272
2.140000 77.546 -40.2474
2.180000 77.923 -41.8175
2.200000 78.103 -42.5694
2.240000 78.455 -43.9552
2.270000 78.715 -44.8864
2.300000 78.970 -45.7374
2.330000 79.221 -46.5196
2.360000 79.467 -47.2444
2.400000 79.789 -48.1411
2.430000 80.024 -48.7761
2.470000 80.330 -49.5943
2.500000 80.554 -50.2012
2.540000 80.844 -51.0233
2.580000 81.123 -51.8764
2.620000 81.392 -52.7095
2.650000 81.587 -53.3131
2.690000 81.839 -54.0921
2.720000 82.022 -54.6586
2.760000 82.258 -55.3927
2.800000 82.488 -56.1052
2.850000 82.765 -56.9700
2.900000 83.034 -57.8116
2.950000 83.296 -58.6349
3.000000 83.546 -59.4357
3.040000 83.738 -60.0577
3.070000 83.878 -60.5126
3.110000 84.059 -61.1029
3.150000 84.235 -61.6736
3.200000 84.449 -62.3577
3.250000 84.656 -63.0074
3.300000 84.860 -63.6204
3.350000 85.057 -64.1871
3.400000 85.245 -64.7080
3.450000 85.427 -65.1921
3.500000 85.603 -65.6488
3.550000 85.775 -66.0874
3.600000 85.944 -66.5171
3.650000 86.110 -66.9471
3.700000 86.275 -67.3806
3.750000 86.435 -67.8069
3.820000 86.653 -68.3872
3.870000 86.805 -68.7876
3.950000 87.045 -69.3988
4.000000 87.194 -69.7597
4.060000 87.373 -70.1651
4.120000 87.550 -70.5275
4.180000 87.725 -70.8598
4.250000 87.927 -71.2316
4.310000 88.099 -71.5553
4.370000 88.271 -71.9011
4.440000 88.471 -72.3432
4.500000 88.641 -72.7365
4.550000 88.783 -73.0731
4.620000 88.981 -73.5585
4.680000 89.148 -73.9881
4.750000 89.341 -74.5058
4.820000 89.531 -75.0391
4.870000 89.667 -75.4277
4.940000 89.854 -75.9863
5.000000 90.012 -76.4818
5.080000 90.218 -77.1722
5.150000 90.393 -77.8094
5.220000 90.563 -78.4813
5.300000 90.753 -79.2842
5.380000 90.936 -80.1137
5.450000 91.090 -80.8525
5.520000 91.238 -81.5977
5.600000 91.399 -82.4720
5.700000 91.591 -83.5902
5.800000 91.771 -84.7147
5.900000 91.939 -85.8266
6.000000 92.094 -86.9430
6.080000 92.210 -87.8327
6.150000 92.306 -88.6001
6.220000 92.399 -89.3500
6.300000 92.499 -90.1881
6.400000 92.614 -91.2162
6.500000 92.722 -92.2116
6.600000 92.827 -93.1624
6.700000 92.926 -94.0639
6.800000 93.021 -94.9233
6.900000 93.113 -95.7482
7.000000 93.207 -96.5438
7.100000 93.300 -97.3006
7.200000 93.392 -98.0284
7.300000 93.486 -98.7423
7.400000 93.582 -99.4461
7.500000 93.680 -100.1299
7.620000 93.798 -100.9450
7.750000 93.927 -101.8467
7.880000 94.058 -102.7589
8.000000 94.178 -103.6137
8.120000 94.295 -104.4888
8.250000 94.419 -105.4602
8.380000 94.537 -106.4421
8.500000 94.640 -107.3516
8.620000 94.737 -108.2713
8.750000 94.835 -109.2551
8.850000 94.905 -109.9908
9.000000 95.001 -111.0750
9.120000 95.073 -111.9062
9.250000 95.148 -112.7548
9.380000 95.218 -113.5574
9.500000 95.280 -114.2556
9.620000 95.340 -114.9084
9.750000 95.402 -115.5666
9.880000 95.461 -116.1889
10.000000 95.511 -116.7324
10.150000 95.570 -117.3710
10.300000 95.628 -117.9930
10.440000 95.681 -118.5523
10.600000 95.743 -119.1916
10.750000 95.805 -119.8105
10.900000 95.871 -120.4442
11.060000 95.940 -121.1593
11.200000 96.001 -121.8192
11.380000 96.073 -122.6926
11.500000 96.117 -123.2919
11.720000 96.187 -124.4007
11.800000 96.209 -124.7997
12.060000 96.269 -126.0785
12.200000 96.294 -126.7326
12.410000 96.323 -127.6638
12.500000 96.334 -128.0319
12.650000 96.347 -128.6070
12.800000 96.358 -129.1339
13.150000 96.388 -130.1680
13.200000 96.394 -130.3010
13.400000 96.424 -130.7890
13.600000 96.463 -131.2602
13.800000 96.513 -131.7289
14.000000 96.570 -132.2442
14.300000 96.662 -133.1253
14.500000 96.720 -133.8032
14.750000 96.781 -134.7182
15.000000 96.827 -135.6848
15.250000 96.857 -136.6376
15.500000 96.876 -137.5228
15.750000 96.888 -138.3168
16.000000 96.902 -139.0077
16.250000 96.925 -139.6544
16.500000 96.960 -140.2983
16.750000 97.006 -141.0039
17.000000 97.052 -141.8046
17.250000 97.092 -142.6873
17.500000 97.114 -143.6281
17.750000 97.117 -144.5344
18.000000 97.103 -145.3558
18.250000 97.080 -146.0367
18.500000 97.061 -146.5627
18.750000 97.056 -146.9784
19.000000 97.072 -147.3268
19.250000 97.108 -147.7098
19.500000 97.156 -148.1678
19.750000 97.208 -148.7296
20.000000 97.252 -149.3839
20.299999 97.287 -150.2180
20.600000 97.302 -151.0302
20.900000 97.302 -151.7522
21.200001 97.299 -152.3599
21.400000 97.299 -152.7201
21.799999 97.306 -153.3880
22.000000 97.313 -153.7203
22.400000 97.327 -154.4079
22.700001 97.334 -154.9297
23.000000 97.337 -155.4374
23.299999 97.340 -155.9311
23.600000 97.343 -156.4209
24.000000 97.345 -157.0792
24.299999 97.343 -157.5652
24.700001 97.336 -158.1630
25.000000 97.334 -158.5575
25.400000 97.346 -159.0471
25.799999 97.376 -159.6069
26.200001 97.408 -160.3239
26.500000 97.420 -160.9344
26.900000 97.412 -161.7167
27.200001 97.398 -162.1870
27.600000 97.392 -162.6381
28.000000 97.423 -163.0527
28.500000 97.492 -163.8776
29.000000 97.518 -165.1024
29.500000 97.453 -166.2503
30.000000 97.347 -166.7904
30.400000 97.294 -166.8203
30.700001 97.290 -166.7908
31.100000 97.315 -166.9149
31.500000 97.337 -167.2660
32.000000 97.327 -167.7645
32.500000 97.300 -168.0070
33.000000 97.317 -168.0842
33.500000 97.383 -168.3999
34.000000 97.443 -169.1620
34.500000 97.450 -170.1393
35.000000 97.407 -170.9836
35.500000 97.357 -171.5659
36.000000 97.328 -172.0286
36.500000 97.316 -172.5385
37.000000 97.298 -173.1091
37.500000 97.266 -173.6193
38.200001 97.227 -174.0534
38.700001 97.230 -174.2385
39.500000 97.285 -174.7611
40.000000 97.311 -175.2960
40.599998 97.311 -175.9644
41.200001 97.296 -176.5176
41.799999 97.279 -177.0351
42.500000 97.238 -177.6488
43.099998 97.186 -178.0046
43.700001 97.157 -178.1775
44.400002 97.169 -178.5072
45.000000 97.181 -179.1037
45.500000 97.165 -179.6918
46.200001 97.118 179.6091
46.799999 97.087 179.1326
47.500000 97.063 178.5585
48.200001 97.032 178.0016
48.700001 97.009 177.7076
49.400002 96.995 177.4388
50.000000 97.005 177.2003
50.799999 97.018 176.7500
51.500000 97.006 176.3707
52.200001 96.985 176.1187
53.000000 96.969 175.8663
53.799999 96.950 175.5024
54.500000 96.915 175.0985
55.200001 96.860 174.7043
56.000000 96.792 174.3990
57.000000 96.759 174.0453
58.000000 96.755 173.2516
59.000000 96.705 172.2609
60.000000 96.615 171.5829
60.799999 96.556 171.4115
61.500000 96.539 171.3831
62.200001 96.541 171.2986
63.000000 96.543 171.1422
64.000000 96.546 170.8824
65.000000 96.534 170.4240
66.000000 96.480 169.8973
67.000000 96.401 169.5373
68.000000 96.344 169.3706
69.000000 96.323 169.1110
70.000000 96.296 168.7079
71.000000 96.254 168.3750
72.000000 96.214 168.1769
73.000000 96.185 168.0012
74.000000 96.155 167.7299
75.000000 96.110 167.3947
76.199997 96.037 166.9794
77.500000 95.961 166.6561
78.800003 95.918 166.3052
80.000000 95.889 165.9399
81.199997 95.869 165.5916
82.500000 95.838 165.2295
83.800003 95.791 164.9471
85.000000 95.739 164.7024
86.199997 95.667 164.4035
87.500000 95.566 164.1484
88.500000 95.497 164.0917
90.000000 95.460 163.8916
91.199997 95.439 163.4620
92.500000 95.404 163.0203
93.800003 95.360 162.7335
95.000000 95.327 162.6332
96.199997 95.300 162.5050
97.500000 95.253 162.3333
98.800003 95.200 162.1653
100.000000 95.149 161.9302
101.500000 95.080 161.6423
103.000000 95.017 161.3882
104.400002 94.963 161.2199
106.000000 94.905 161.0762
107.500000 94.848 160.9500
109.000000 94.791 160.7561
110.599998 94.719 160.5020
112.000000 94.656 160.3372
113.800003 94.588 160.1954
115.000000 94.548 160.1021
117.199997 94.476 159.8936
118.000000 94.449 159.7790
120.599998 94.341 159.4523
122.000000 94.291 159.4073
124.099998 94.227 159.3853
125.000000 94.199 159.3916
126.500000 94.153 159.3774
128.000000 94.101 159.3175
131.500000 93.978 159.0433
132.000000 93.962 158.9947
134.000000 93.900 158.8147
136.000000 93.844 158.6969
138.000000 93.789 158.6514
140.000000 93.734 158.6799
143.000000 93.651 158.6109
145.000000 93.592 158.5272
147.500000 93.528 158.4464
150.000000 93.452 158.5029
152.500000 93.379 158.6413
155.000000 93.319 158.6513
157.500000 93.271 158.6116
160.000000 93.205 158.6725
162.500000 93.111 158.7488
165.000000 93.014 158.6696
167.500000 92.945 158.5494
170.000000 92.898 158.5419
172.500000 92.841 158.6049
175.000000 92.772 158.6635
177.500000 92.713 158.7263
180.000000 92.656 158.7880
182.500000 92.579 158.8862
185.000000 92.500 159.0023
187.500000 92.433 159.0626
190.000000 92.372 159.1201
192.500000 92.313 159.1967
195.000000 92.259 159.2899
197.500000 92.210 159.4119
200.000000 92.160 159.5369
203.000000 92.082 159.6874
206.000000 92.009 159.8318
209.000000 91.956 159.9742
212.000000 91.910 160.2141
214.000000 91.873 160.3712
218.000000 91.780 160.5634
220.000000 91.737 160.6310
224.000000 91.655 160.8909
227.000000 91.607 161.1232
230.000000 91.549 161.2471
233.000000 91.468 161.4800
236.000000 91.394 161.7253
240.000000 91.312 161.7908
243.000000 91.259 161.9534
247.000000 91.213 162.3627
250.000000 91.184 162.6289
254.000000 91.131 163.0025
258.000000 91.079 163.3899
262.000000 91.029 163.6538
265.000000 90.984 163.8085
269.000000 90.926 163.9616
272.000000 90.885 164.0535
276.000000 90.824 164.1456
280.000000 90.736 164.2953
285.000000 90.632 164.7587
290.000000 90.595 165.3422
295.000000 90.564 165.7526
300.000000 90.495 165.9266
304.000000 90.455 166.3671
307.000000 90.434 166.7521
311.000000 90.395 167.0859
315.000000 90.348 167.3889
320.000000 90.296 167.8624
325.000000 90.259 168.2704
330.000000 90.210 168.6910
335.000000 90.169 169.0900
340.000000 90.126 169.4064
345.000000 90.097 169.7745
350.000000 90.061 170.1692
355.000000 89.988 170.5549
360.000000 89.927 171.0356
365.000000 89.897 171.5521
370.000000 89.876 172.0063
375.000000 89.835 172.4224
382.000000 89.783 173.0365
387.000000 89.756 173.4727
395.000000 89.669 174.1336
400.000000 89.616 174.4416
406.000000 89.590 174.8021
412.000000 89.566 175.3436
418.000000 89.538 175.8988
425.000000 89.479 176.5278
431.000000 89.418 176.9747
437.000000 89.377 177.4142
444.000000 89.342 177.9658
450.000000 89.311 178.4721
455.000000 89.286 178.9079
462.000000 89.245 179.5028
468.000000 89.204 -179.9712
475.000000 89.169 -179.3688
482.000000 89.144 -178.8309
487.000000 89.120 -178.4488
494.000000 89.089 -177.8740
500.000000 89.073 -177.3618
508.000000 89.063 -176.6691
515.000000 89.049 -176.0775
522.000000 89.034 -175.5344
530.000000 89.025 -174.8470
538.000000 89.038 -174.0814
545.000000 89.013 -173.4597
552.000000 88.961 -172.9370
560.000000 88.926 -172.3587
570.000000 88.901 -171.5406
580.000000 88.879 -170.6787
590.000000 88.862 -169.8771
600.000000 88.852 -169.0332
608.000000 88.838 -168.3055
615.000000 88.830 -167.6539
622.000000 88.831 -167.0710
630.000000 88.834 -166.5434
640.000000 88.828 -165.8931
650.000000 88.832 -165.0846
660.000000 88.855 -164.0585
670.000000 88.852 -163.4116
680.000000 88.871 -162.9891
690.000000 88.904 -162.3573
700.000000 88.918 -161.9824
710.000000 88.890 -162.0718
720.000000 88.760 -162.2588
730.000000 88.531 -161.4759
740.000000 88.361 -159.4736
750.000000 88.352 -157.2634
762.000000 88.446 -155.1443
775.000000 88.546 -153.6079
788.000000 88.639 -152.5495
800.000000 88.710 -151.6796
812.000000 88.762 -150.6841
825.000000 88.816 -149.6378
838.000000 88.875 -148.5914
850.000000 88.930 -147.6548
862.000000 88.978 -146.7033
875.000000 89.032 -145.6711
885.000000 89.088 -144.8984
900.000000 89.187 -143.8736
912.000000 89.246 -142.9762
925.000000 89.302 -141.9660
938.000000 89.373 -141.0436
950.000000 89.448 -140.2185
962.000000 89.524 -139.4014
975.000000 89.604 -138.5051
988.000000 89.690 -137.6385
1000.000000 89.767 -136.9251
1015.000000 89.857 -136.0929
1030.000000 89.954 -135.2012
1044.000000 90.046 -134.3732
1060.000000 90.147 -133.5475
1075.000000 90.246 -132.8081
1090.000000 90.356 -132.0833
1106.000000 90.491 -131.3844
1120.000000 90.615 -130.7581
1138.000000 90.764 -129.8935
1150.000000 90.857 -129.4137
1172.000000 91.035 -128.7101
1180.000000 91.099 -128.4624
1206.000000 91.314 -127.5981
1220.000000 91.437 -127.2066
1241.000000 91.615 -126.7108
1250.000000 91.692 -126.5220
1265.000000 91.810 -126.2043
1280.000000 91.911 -125.8578
1315.000000 92.135 -125.2623
1320.000000 92.165 -125.1885
1340.000000 92.281 -124.8524
1360.000000 92.392 -124.4841
1380.000000 92.495 -124.1247
1400.000000 92.575 -123.7867
1430.000000 92.695 -123.2195
1450.000000 92.783 -122.8665
1475.000000 92.891 -122.5135
1500.000000 92.990 -122.0929
1525.000000 93.100 -121.5681
1550.000000 93.200 -121.0809
1575.000000 93.289 -120.6239
1600.000000 93.374 -120.1185
1625.000000 93.457 -119.6045
1650.000000 93.542 -119.0121
1675.000000 93.626 -118.4646
1700.000000 93.711 -117.9476
1725.000000 93.796 -117.4369
1750.000000 93.885 -116.9022
1775.000000 93.970 -116.3214
1800.000000 94.050 -115.7580
1825.000000 94.128 -115.2218
1850.000000 94.215 -114.7023
1875.000000 94.300 -114.2009
1900.000000 94.374 -113.7041
1925.000000 94.445 -113.1724
1950.000000 94.521 -112.5947
1975.000000 94.601 -111.9758
2000.000000 94.675 -111.3860
2030.000000 94.755 -110.6570
2060.000000 94.847 -109.8035
2090.000000 94.959 -108.9031
2120.000000 95.101 -108.0091
2140.000000 95.214 -107.4569
2180.000000 95.470 -106.5920
2200.000000 95.604 -106.3315
2240.000000 95.844 -106.0079
2270.000000 95.990 -105.8252
2300.000000 96.120 -105.7930
2330.000000 96.238 -105.8265
2360.000000 96.349 -105.8085
2400.000000 96.489 -105.7147
2430.000000 96.579 -105.6287
2470.000000 96.690 -105.5469
2500.000000 96.774 -105.4568
2540.000000 96.880 -105.2934
2580.000000 96.977 -105.1283
2620.000000 97.073 -105.0377
2650.000000 97.145 -104.9955
2690.000000 97.233 -104.9166
2720.000000 97.292 -104.8230
2760.000000 97.365 -104.6799
2800.000000 97.434 -104.5229
2850.000000 97.527 -104.3723
2900.000000 97.614 -104.2396
2950.000000 97.687 -104.1148
3000.000000 97.760 -104.0580
3040.000000 97.816 -103.9846
3070.000000 97.852 -103.9175
3110.000000 97.893 -103.8465
3150.000000 97.934 -103.7841
3200.000000 97.987 -103.6873
3250.000000 98.043 -103.6143
3300.000000 98.092 -103.6081
3350.000000 98.137 -103.6639
3400.000000 98.174 -103.8156
3450.000000 98.191 -104.0692
3500.000000 98.174 -104.3329
3550.000000 98.122 -104.4761
3600.000000 98.048 -104.3980
3650.000000 97.968 -104.0273
3700.000000 97.908 -103.4266
3750.000000 97.873 -102.6870
3820.000000 97.863 -101.6118
3870.000000 97.877 -100.9175
3950.000000 97.922 -99.9873
4000.000000 97.951 -99.5276
4060.000000 97.976 -99.0365
4120.000000 97.994 -98.6140
4180.000000 98.014 -98.2825
4250.000000 98.040 -97.9486
4310.000000 98.048 -97.6697
4370.000000 98.035 -97.4098
4440.000000 98.003 -97.1901
4500.000000 97.966 -97.0562
4550.000000 97.927 -96.9709
4620.000000 97.862 -96.8605
4680.000000 97.801 -96.7864
4750.000000 97.714 -96.7214
4820.000000 97.609 -96.6730
4870.000000 97.520 -96.6567
4940.000000 97.366 -96.6180
5000.000000 97.208 -96.5421
5080.000000 96.961 -96.3174
5150.000000 96.720 -95.9315
5220.000000 96.464 -95.3265
5300.000000 96.159 -94.3166
5380.000000 95.853 -92.9739
5450.000000 95.597 -91.5496
5520.000000 95.370 -89.9015
5600.000000 95.149 -87.8186
5700.000000 94.927 -85.0550
5800.000000 94.766 -82.4635
5900.000000 94.627 -80.1661
6000.000000 94.470 -77.8901
6080.000000 94.335 -75.9398
6150.000000 94.228 -74.1400
6220.000000 94.139 -72.2812
6300.000000 94.054 -70.0985
6400.000000 93.973 -67.3100
6500.000000 93.923 -64.5421
6600.000000 93.910 -61.8423
6700.000000 93.923 -59.2245
6800.000000 93.967 -56.6940
6900.000000 94.060 -54.2762
7000.000000 94.201 -51.9923
7100.000000 94.369 -49.8814
7200.000000 94.558 -47.9923
7300.000000 94.765 -46.3815
7400.000000 94.983 -45.0885
7500.000000 95.200 -44.1000
7620.000000 95.457 -43.3034
7750.000000 95.726 -42.9427
7880.000000 95.886 -43.1268
8000.000000 95.938 -43.7615
8120.000000 95.902 -44.7892
8250.000000 95.733 -46.1646
8380.000000 95.408 -47.5068
8500.000000 94.973 -48.3915
8620.000000 94.430 -48.6833
8750.000000 93.757 -48.1623
8850.000000 93.211 -47.1530
9000.000000 92.377 -44.6786
9120.000000 91.726 -41.9490
9250.000000 91.067 -38.3686
9380.000000 90.459 -34.2526
9500.000000 89.954 -30.0595
9620.000000 89.515 -25.5370
9750.000000 89.123 -20.3528
9880.000000 88.823 -14.9471
10000.000000 88.625 -9.8142
10150.000000 88.489 -3.2971
10300.000000 88.488 3.2485
10440.000000 88.623 9.2597
10600.000000 88.946 15.8397
10750.000000 89.438 21.4864
10900.000000 90.154 26.1603
11060.000000 91.154 29.2496
11200.000000 92.123 29.3903
11380.000000 93.148 24.9857
11500.000000 93.471 19.6252
11720.000000 93.121 9.1858
11800.000000 92.756 6.2270
12060.000000 91.186 0.2854
12200.000000 90.211 -1.2335
12410.000000 88.607 -1.5834
12500.000000 87.883 -0.9619
12650.000000 86.658 1.1233
12800.000000 85.455 4.3977
13150.000000 82.926 15.4995
13200.000000 82.605 17.3734
13400.000000 81.425 25.3642
13600.000000 80.408 33.9505
13800.000000 79.556 42.8973
14000.000000 78.864 52.0764
14300.000000 78.090 66.0389
14500.000000 77.733 75.3922
14750.000000 77.487 87.0350
15000.000000 77.479 98.3026
15250.000000 77.727 108.9558
15500.000000 78.314 118.6861
15750.000000 79.288 126.8138
16000.000000 80.616 132.0542
16250.000000 82.113 132.1520
16500.000000 83.240 124.7910
16750.000000 83.308 111.3601
17000.000000 82.022 98.7838
17250.000000 79.720 92.8719
17500.000000 77.053 93.7311
17750.000000 74.488 98.9655
18000.000000 72.188 106.6674
18250.000000 70.132 115.8440
18500.000000 68.273 125.9487
18750.000000 66.575 136.7699
19000.000000 64.943 148.5125
19250.000000 63.379 161.1024
19500.000000 61.894 174.5038
19750.000000 60.488 -171.1784
20000.000000 59.254 -156.7209
20300.000000 58.050 -148.1769
20600.000000 57.180 128.1108
20900.000000 57.082 -40.5078
21200.000000 58.648 42.6017
21400.000000 60.618 134.8569
21800.000000 65.271 137.2510
22000.000000 67.571 160.2969
22400.000000 73.951 -35.3262
22700.000000 79.307 -13.0840
23000.000000 82.138 54.9609
23300.000000 80.933 -132.9297
23600.000000 76.170 -131.2070
24000.000000 68.697 -71.6836
