* Measurement data measured by REW V5.30.9
* Source: Microphone (Realtek USB2.0 Audio), MICROPHONE (Master Volume), L, volume: 0.500
* Format: 512k Log Swept Sine, 1 sweep at -12.0 dBFS with no timing reference
* Dated: 02 22, 24 10:35:51 PM
* REW Settings:
*  C-weighting compensation: Off
*  Target level: 75.0 dB
* Note: ; 
* Measurement: ea2000 l
* Smoothing: None
* Frequency Step: 1/48 octave
* Start Frequency: 1.000 Hz
*
* Freq(Hz)	SPL(dB)	Phase(degrees)
1.000000	48.162	-81.9069
1.015000	47.993	-82.8798
1.030000	47.827	-83.8628
1.044000	47.676	-84.7900
1.060000	47.506	-85.8574
1.075000	47.349	-86.8621
1.090000	47.192	-87.8671
1.106000	47.023	-88.9357
1.120000	46.872	-89.8646
1.138000	46.673	-91.0459
1.150000	46.535	-91.8225
1.172000	46.271	-93.2172
1.180000	46.170	-93.7133
1.206000	45.822	-95.2765
1.220000	45.620	-96.0826
1.241000	45.293	-97.2373
1.250000	45.144	-97.7102
1.265000	44.882	-98.4663
1.280000	44.602	-99.1793
1.315000	43.870	-100.6565
1.320000	43.756	-100.8443
1.340000	43.273	-101.5325
1.360000	42.727	-102.2164
1.380000	42.075	-103.1480
1.400000	41.330	-104.2781
1.430000	40.076	-106.1984
1.450000	39.173	-107.5306
1.475000	37.999	-109.1359
1.500000	36.806	-110.5520
1.525000	35.627	-111.6475
1.550000	34.495	-112.2909
1.575000	33.442	-112.3509
1.600000	32.503	-111.6960
1.625000	31.709	-110.1947
1.650000	31.095	-107.7157
1.675000	30.693	-104.1275
1.700000	30.522	-99.1149
1.725000	30.549	-92.2486
1.750000	30.748	-83.8093
1.775000	31.096	-74.1152
1.800000	31.569	-63.4844
1.825000	32.143	-52.2352
1.850000	32.794	-40.6857
1.875000	33.500	-29.1541
1.900000	34.235	-17.9586
1.925000	34.977	-7.4173
1.950000	35.702	2.1517
1.975000	36.385	10.4301
2.000000	37.004	17.0997
2.030000	37.640	22.6087
2.060000	38.268	25.9356
2.090000	38.913	27.5248
2.120000	39.569	27.6619
2.140000	40.008	27.0876
2.180000	40.881	24.7224
2.200000	41.311	23.1006
2.240000	42.146	19.4020
2.270000	42.742	16.5631
2.300000	43.304	13.9858
2.330000	43.825	11.9558
2.360000	44.297	10.7443
2.400000	44.853	9.5581
2.430000	45.223	8.6404
2.470000	45.665	7.4028
2.500000	45.964	6.4802
2.540000	46.331	5.2808
2.580000	46.671	4.1434
2.620000	46.998	3.0971
2.650000	47.242	2.3898
2.690000	47.576	1.5733
2.720000	47.828	1.0441
2.760000	48.142	0.4030
2.800000	48.438	-0.1566
2.850000	48.789	-0.7285
2.900000	49.128	-1.1432
2.950000	49.463	-1.3840
3.000000	49.804	-1.4342
3.040000	50.087	-1.3271
3.070000	50.299	-1.1680
3.110000	50.579	-0.8562
3.150000	50.858	-0.4301
3.200000	51.207	0.2641
3.250000	51.559	1.1387
3.300000	51.919	2.1946
3.350000	52.289	3.4328
3.400000	52.672	4.8656
3.450000	53.065	6.5142
3.500000	53.466	8.3569
3.550000	53.874	10.3698
3.600000	54.287	12.5292
3.650000	54.703	14.8111
3.700000	55.120	17.1918
3.750000	55.543	19.7485
3.820000	56.146	23.6909
3.870000	56.581	26.6600
3.950000	57.277	31.4596
4.000000	57.706	34.3681
4.060000	58.213	37.6656
4.120000	58.716	40.9521
4.180000	59.216	44.2162
4.250000	59.793	47.8727
4.310000	60.277	50.7711
4.370000	60.749	53.3542
4.440000	61.286	55.9502
4.500000	61.735	57.8932
4.550000	62.103	59.3315
4.620000	62.605	61.0962
4.680000	63.025	62.4029
4.750000	63.501	63.6893
4.820000	63.962	64.6347
4.870000	64.282	65.1385
4.940000	64.720	65.6728
5.000000	65.088	66.0327
5.080000	65.567	66.4480
5.150000	65.973	66.6562
5.220000	66.369	66.7323
5.300000	66.811	66.7211
5.380000	67.247	66.6759
5.450000	67.624	66.6097
5.520000	67.993	66.4818
5.600000	68.409	66.2904
5.700000	68.925	66.0354
5.800000	69.441	65.7963
5.900000	69.952	65.5416
6.000000	70.461	65.2702
6.080000	70.867	65.0423
6.150000	71.222	64.8439
6.220000	71.577	64.6404
6.300000	71.980	64.3872
6.400000	72.479	64.0157
6.500000	72.973	63.5883
6.600000	73.461	63.1090
6.700000	73.940	62.5586
6.800000	74.405	61.9185
6.900000	74.859	61.1937
7.000000	75.301	60.4102
7.100000	75.726	59.5902
7.200000	76.136	58.7125
7.300000	76.530	57.7985
7.400000	76.909	56.8857
7.500000	77.272	55.9666
7.620000	77.687	54.8553
7.750000	78.118	53.7343
7.880000	78.528	52.7151
8.000000	78.892	51.8611
8.120000	79.249	51.1244
8.250000	79.626	50.4616
8.380000	80.001	49.9108
8.500000	80.350	49.4954
8.620000	80.700	49.1753
8.750000	81.085	48.8669
8.850000	81.387	48.6530
9.000000	81.847	48.3628
9.120000	82.219	48.0768
9.250000	82.628	47.7175
9.380000	83.036	47.2961
9.500000	83.409	46.8277
9.620000	83.780	46.2904
9.750000	84.172	45.6393
9.880000	84.551	44.9097
10.000000	84.891	44.1760
10.150000	85.296	43.2222
10.300000	85.679	42.2143
10.440000	86.019	41.2828
10.600000	86.383	40.2483
10.750000	86.705	39.3233
10.900000	87.011	38.4719
11.060000	87.322	37.6390
11.200000	87.585	36.9894
11.380000	87.912	36.2566
11.500000	88.127	35.8266
11.720000	88.516	35.1600
11.800000	88.658	34.9402
12.060000	89.117	34.3125
12.200000	89.363	33.9943
12.410000	89.733	33.5393
12.500000	89.890	33.3498
12.650000	90.151	33.0440
12.800000	90.409	32.7369
13.150000	90.982	31.9945
13.200000	91.030	31.8820
13.400000	91.155	31.4225
13.600000	91.228	30.9811
13.800000	91.267	30.5422
14.000000	91.313	30.0832
14.300000	91.385	29.3283
14.500000	91.429	28.7990
14.750000	91.465	28.1557
15.000000	91.492	27.5116
15.250000	91.514	26.8754
15.500000	91.532	26.2715
15.750000	91.537	25.7620
16.000000	91.548	25.2975
16.250000	91.571	24.8478
16.500000	91.605	24.3946
16.750000	91.636	23.9487
17.000000	91.672	23.4598
17.250000	91.713	22.9215
17.500000	91.753	22.3418
17.750000	91.780	21.7680
18.000000	91.803	21.1946
18.250000	91.826	20.6308
18.500000	91.848	20.0887
18.750000	91.864	19.5951
19.000000	91.882	19.1204
19.250000	91.905	18.6545
19.500000	91.931	18.1932
19.750000	91.951	17.7504
20.000000	91.972	17.3064
20.299999	91.997	16.7731
20.600000	92.018	16.2601
20.900000	92.032	15.7891
21.200001	92.047	15.3390
21.400000	92.057	15.0547
21.799999	92.072	14.5411
22.000000	92.081	14.2903
22.400000	92.103	13.7732
22.700001	92.117	13.3765
23.000000	92.127	12.9541
23.299999	92.136	12.4886
23.600000	92.137	12.0110
24.000000	92.123	11.4079
24.299999	92.110	10.9820
24.700001	92.092	10.4950
25.000000	92.083	10.1719
25.400000	92.090	9.7140
25.799999	92.107	9.1920
26.200001	92.128	8.5421
26.500000	92.137	7.9922
26.900000	92.129	7.2760
27.200001	92.115	6.7886
27.600000	92.094	6.2874
28.000000	92.085	5.9468
28.500000	92.114	5.5327
29.000000	92.154	4.9472
29.500000	92.169	4.1818
30.000000	92.133	3.5694
30.400000	92.096	3.3160
30.700001	92.079	3.2574
31.100000	92.084	3.1990
31.500000	92.114	2.9582
32.000000	92.133	2.3451
32.500000	92.102	1.5636
33.000000	92.027	0.9901
33.500000	91.963	0.6595
34.000000	91.936	0.3942
34.500000	91.943	-0.0633
35.000000	91.951	-0.7182
35.500000	91.949	-1.5097
36.000000	91.925	-2.2812
36.500000	91.888	-2.9573
37.000000	91.843	-3.3855
37.500000	91.821	-3.5636
38.200001	91.854	-3.6729
38.700001	91.906	-3.9745
39.500000	91.926	-4.9035
40.000000	91.872	-5.4138
40.599998	91.788	-5.7157
41.200001	91.725	-5.9106
41.799999	91.663	-6.2897
42.500000	91.561	-6.7180
43.099998	91.505	-6.8809
43.700001	91.517	-7.2905
44.400002	91.520	-8.2964
45.000000	91.475	-9.0092
45.500000	91.461	-9.2920
46.200001	91.513	-9.7020
46.799999	91.545	-10.3286
47.500000	91.502	-10.8174
48.200001	91.439	-10.6372
48.700001	91.428	-10.2651
49.400002	91.475	-10.0724
50.000000	91.471	-10.7248
50.799999	91.210	-11.5330
51.500000	91.009	-10.4670
52.200001	91.158	-10.0880
53.000000	91.209	-12.4548
53.799999	91.043	-13.3774
54.500000	91.219	-13.9697
55.200001	91.252	-16.1642
56.000000	91.155	-14.5942
57.000000	92.481	-15.2654
58.000000	92.320	-27.3456
59.000000	90.332	-23.8139
60.000000	91.015	-15.4168
60.799999	91.149	-17.4260
61.500000	90.874	-16.7248
62.200001	90.881	-15.8483
63.000000	90.781	-16.5474
64.000000	90.650	-16.3135
65.000000	90.663	-17.8738
66.000000	90.463	-18.8276
67.000000	90.433	-18.8324
68.000000	90.488	-19.1362
69.000000	90.469	-19.9515
70.000000	90.371	-19.8838
71.000000	90.342	-20.3788
72.000000	90.144	-20.3638
73.000000	90.193	-20.2532
74.000000	89.995	-21.7174
75.000000	89.796	-19.8941
76.199997	90.154	-20.6439
77.500000	89.788	-21.8519
78.800003	89.902	-21.0999
80.000000	89.754	-21.9127
81.199997	89.796	-22.1382
82.500000	89.615	-23.0832
83.800003	89.574	-23.3586
85.000000	89.458	-23.3162
86.199997	89.476	-23.6489
87.500000	89.365	-23.6189
88.500000	89.397	-23.8336
90.000000	89.277	-25.0008
91.199997	89.034	-25.0911
92.500000	88.992	-24.2583
93.800003	88.940	-24.4137
95.000000	88.897	-24.5329
96.199997	88.773	-23.8692
97.500000	88.972	-23.8016
98.800003	88.803	-24.7273
100.000000	88.843	-23.7417
101.500000	88.892	-25.2053
103.000000	88.717	-25.4275
104.400002	88.665	-25.6210
106.000000	88.610	-26.0424
107.500000	88.557	-26.0683
109.000000	88.475	-26.3441
110.599998	88.469	-26.4992
112.000000	88.262	-26.7935
113.800003	88.168	-26.4213
115.000000	88.245	-27.2846
117.199997	88.072	-28.7262
118.000000	88.002	-27.6655
120.599998	87.882	-32.5394
122.000000	87.950	-27.7068
124.099998	87.694	-27.8737
125.000000	87.705	-27.6816
126.500000	87.539	-27.4022
128.000000	87.414	-27.2313
131.500000	87.401	-27.7183
132.000000	87.281	-27.9685
134.000000	87.317	-27.4630
136.000000	87.237	-27.0795
138.000000	87.115	-27.6010
140.000000	87.318	-26.1650
143.000000	87.220	-26.3649
145.000000	87.223	-26.5929
147.500000	87.122	-26.9439
150.000000	87.002	-27.5849
152.500000	86.916	-27.4384
155.000000	86.798	-27.4230
157.500000	86.758	-27.3520
160.000000	86.711	-27.8332
162.500000	86.638	-27.7002
165.000000	86.518	-27.7061
167.500000	86.457	-27.5717
170.000000	86.368	-27.4683
172.500000	86.254	-27.8780
175.000000	86.128	-27.5332
177.500000	86.078	-27.5192
180.000000	86.029	-27.0404
182.500000	85.938	-27.1250
185.000000	85.837	-26.9571
187.500000	85.745	-26.8328
190.000000	85.697	-26.8173
192.500000	85.610	-26.8493
195.000000	85.551	-26.6162
197.500000	85.489	-26.2987
200.000000	85.372	-26.2231
203.000000	85.324	-26.1537
206.000000	85.323	-26.0580
209.000000	85.225	-25.8657
212.000000	85.136	-25.5380
214.000000	85.094	-25.3655
218.000000	84.989	-25.2715
220.000000	84.952	-25.2510
224.000000	84.865	-24.7939
227.000000	84.820	-24.6842
230.000000	84.778	-24.4377
233.000000	84.700	-24.4213
236.000000	84.664	-24.1663
240.000000	84.745	-23.1779
243.000000	84.556	-23.3725
247.000000	84.434	-23.1725
250.000000	84.404	-22.9674
254.000000	84.326	-22.5924
258.000000	84.259	-22.3696
262.000000	84.193	-22.0294
265.000000	84.134	-21.7420
269.000000	84.085	-21.4262
272.000000	84.030	-21.1624
276.000000	83.954	-20.8977
280.000000	83.904	-20.5185
285.000000	83.827	-20.1038
290.000000	83.744	-19.7485
295.000000	83.689	-19.1782
300.000000	83.615	-18.8184
304.000000	83.569	-18.4424
307.000000	83.527	-18.1870
311.000000	83.472	-17.9272
315.000000	83.421	-17.7138
320.000000	83.389	-17.1601
325.000000	83.302	-16.6380
330.000000	83.262	-16.3114
335.000000	83.216	-15.7420
340.000000	83.128	-15.2810
345.000000	83.104	-15.1293
350.000000	83.038	-14.4419
355.000000	83.013	-14.0427
360.000000	82.650	-12.6340
365.000000	82.872	-13.3961
370.000000	82.886	-13.0310
375.000000	82.830	-12.5580
382.000000	82.768	-11.9078
387.000000	82.726	-11.3208
395.000000	82.659	-10.7042
400.000000	82.634	-10.3245
406.000000	82.591	-9.7279
412.000000	82.583	-9.2240
418.000000	82.527	-8.7322
425.000000	82.481	-8.0912
431.000000	82.438	-7.5642
437.000000	82.409	-7.2133
444.000000	82.375	-6.5091
450.000000	82.339	-6.0006
455.000000	82.314	-5.5966
462.000000	82.292	-5.0333
468.000000	82.231	-4.5330
475.000000	82.219	-3.8783
482.000000	82.187	-3.3100
487.000000	82.198	-3.0906
494.000000	82.156	-2.2671
500.000000	82.145	-1.7370
508.000000	82.120	-1.2140
515.000000	82.080	-0.6728
522.000000	82.053	-0.0903
530.000000	82.044	0.6978
538.000000	82.020	1.2894
545.000000	82.005	1.8733
552.000000	81.974	2.4666
560.000000	81.974	3.0878
570.000000	81.959	3.8922
580.000000	81.930	4.7456
590.000000	81.930	5.5871
600.000000	81.949	6.3346
608.000000	81.922	6.9954
615.000000	81.909	7.5601
622.000000	81.917	8.1540
630.000000	81.906	8.7909
640.000000	81.909	9.5495
650.000000	81.921	10.3447
660.000000	81.910	11.1886
670.000000	81.931	12.0134
680.000000	81.940	12.8648
690.000000	81.935	13.5164
700.000000	81.977	14.3455
710.000000	81.977	15.2241
720.000000	82.011	16.1676
730.000000	82.024	16.7516
740.000000	82.030	17.5388
750.000000	82.063	18.4055
762.000000	82.086	19.4025
775.000000	82.152	20.2152
788.000000	82.190	21.3035
800.000000	82.248	22.1717
812.000000	82.293	23.1566
825.000000	82.351	24.1970
838.000000	82.392	25.1830
850.000000	82.451	26.0120
862.000000	82.518	26.8841
875.000000	82.581	27.8328
885.000000	82.641	28.7286
900.000000	82.735	29.6236
912.000000	82.813	30.5570
925.000000	82.896	31.4019
938.000000	82.986	32.2805
950.000000	83.078	32.9418
962.000000	83.170	33.5808
975.000000	83.293	34.4183
988.000000	83.401	35.1928
1000.000000	83.519	35.8664
1015.000000	83.640	36.6651
1030.000000	83.768	37.3981
1044.000000	83.880	38.0000
1060.000000	84.019	38.7367
1075.000000	84.131	39.3443
1090.000000	84.232	40.1020
1106.000000	84.329	41.6223
1120.000000	84.682	42.6622
1138.000000	84.915	42.1208
1150.000000	85.012	42.1284
1172.000000	85.182	42.5632
1180.000000	85.255	42.5452
1206.000000	85.455	43.2009
1220.000000	85.568	43.3647
1241.000000	85.738	43.8249
1250.000000	85.833	43.8750
1265.000000	85.944	44.1996
1280.000000	86.058	44.4232
1315.000000	86.350	44.9529
1320.000000	86.383	44.9000
1340.000000	86.556	45.2866
1360.000000	86.722	45.5645
1380.000000	86.884	45.8011
1400.000000	87.041	46.1029
1430.000000	87.278	46.4042
1450.000000	87.449	46.5830
1475.000000	87.643	46.8089
1500.000000	87.848	47.0832
1525.000000	88.064	47.3556
1550.000000	88.289	47.5649
1575.000000	88.490	47.6985
1600.000000	88.708	47.7747
1625.000000	88.929	47.7784
1650.000000	89.150	47.7681
1675.000000	89.381	47.7148
1700.000000	89.608	47.6494
1725.000000	89.837	47.4961
1750.000000	90.068	47.3291
1775.000000	90.297	46.9915
1800.000000	90.537	46.6457
1825.000000	90.769	46.1925
1850.000000	90.996	45.7156
1875.000000	91.231	45.1662
1900.000000	91.456	44.5333
1925.000000	91.685	43.7670
1950.000000	91.906	42.9301
1975.000000	92.144	41.9072
2000.000000	92.371	40.9235
2030.000000	92.631	39.5162
2060.000000	92.868	37.9962
2090.000000	93.096	36.2988
2120.000000	93.301	34.4995
2140.000000	93.433	33.2323
2180.000000	93.657	30.5279
2200.000000	93.741	29.0258
2240.000000	93.886	26.0889
2270.000000	93.956	23.7686
2300.000000	93.985	21.3371
2330.000000	93.958	18.8531
2360.000000	93.890	16.4205
2400.000000	93.725	13.5243
2430.000000	93.546	11.5212
2470.000000	93.312	9.3285
2500.000000	93.104	7.8518
2540.000000	92.809	6.2689
2580.000000	92.500	5.0307
2620.000000	92.183	4.3120
2650.000000	91.942	4.0169
2690.000000	91.690	4.0471
2720.000000	91.554	4.0015
2760.000000	91.381	4.0873
2800.000000	91.241	3.8383
2850.000000	90.998	3.8084
2900.000000	90.738	3.6220
2950.000000	90.533	3.9645
3000.000000	90.260	4.0563
3040.000000	90.063	4.7580
3070.000000	89.980	5.0298
3110.000000	89.802	5.7703
3150.000000	89.640	5.9118
3200.000000	89.360	7.1076
3250.000000	89.201	8.0215
3300.000000	89.065	9.7548
3350.000000	88.854	10.7999
3400.000000	88.731	11.5141
3450.000000	88.608	12.5833
3500.000000	88.530	14.6977
3550.000000	88.452	15.6062
3600.000000	88.361	17.9663
3650.000000	88.240	18.7931
3700.000000	88.270	20.0147
3750.000000	88.172	22.4546
3820.000000	88.211	24.2365
3870.000000	88.250	26.4889
3950.000000	88.382	28.8024
4000.000000	88.238	29.9331
4060.000000	88.261	32.2074
4120.000000	88.544	33.3634
4180.000000	88.667	35.7162
4250.000000	88.857	37.9228
4310.000000	89.058	40.1966
4370.000000	89.175	40.4057
4440.000000	89.406	42.3892
4500.000000	89.602	43.7542
4550.000000	89.746	44.7023
4620.000000	90.179	47.1831
4680.000000	90.371	47.9186
4750.000000	90.802	49.7106
4820.000000	91.087	49.6954
4870.000000	91.421	50.3564
4940.000000	91.840	51.5070
5000.000000	92.271	51.6626
5080.000000	92.598	52.4707
5150.000000	93.006	53.0451
5220.000000	93.472	52.7631
5300.000000	93.923	52.8169
5380.000000	94.407	52.2661
5450.000000	95.149	51.9321
5520.000000	95.679	50.8639
5600.000000	96.440	48.3481
5700.000000	97.120	43.6635
5800.000000	97.804	38.5298
5900.000000	98.423	31.5330
6000.000000	98.715	23.0233
6080.000000	98.523	16.2640
6150.000000	98.149	11.5126
6220.000000	97.775	6.4749
6300.000000	97.376	2.7642
6400.000000	96.821	-1.5504
6500.000000	96.020	-4.7348
6600.000000	95.459	-4.4594
6700.000000	95.017	-5.7053
6800.000000	94.662	-5.3140
6900.000000	94.271	-3.7772
7000.000000	93.925	-3.3163
7100.000000	93.942	-2.4667
7200.000000	94.048	-1.0449
7300.000000	94.227	-0.7853
7400.000000	94.349	1.0315
7500.000000	94.788	-0.0958
7620.000000	95.402	0.7028
7750.000000	96.066	-2.0590
7880.000000	97.026	-7.7649
8000.000000	98.013	-14.7007
8120.000000	98.047	-25.7955
8250.000000	97.457	-38.7827
8380.000000	96.119	-50.0545
8500.000000	94.682	-57.5446
8620.000000	92.859	-61.0012
8750.000000	91.356	-62.3294
8850.000000	90.089	-62.2792
9000.000000	88.436	-61.1171
9120.000000	87.329	-57.7564
9250.000000	86.170	-54.9696
9380.000000	85.118	-51.0477
9500.000000	84.336	-48.1568
9620.000000	83.406	-43.6948
9750.000000	82.697	-39.5329
9880.000000	82.075	-35.4651
10000.000000	81.655	-30.2783
10150.000000	81.124	-24.4308
10300.000000	80.571	-19.6606
10440.000000	80.398	-13.7324
10600.000000	80.054	-7.8866
10750.000000	79.880	-3.6447
10900.000000	79.948	2.0369
11060.000000	79.820	6.4095
11200.000000	80.152	10.6108
11380.000000	80.298	15.8593
11500.000000	80.510	17.4263
11720.000000	81.281	21.4049
11800.000000	81.544	22.0616
12060.000000	82.544	20.9229
12200.000000	82.893	18.8159
12410.000000	83.178	13.2452
12500.000000	83.074	12.0566
12650.000000	83.048	11.5708
12800.000000	83.716	8.3222
13150.000000	83.334	-9.0144
13200.000000	83.138	-10.0905
13400.000000	82.021	-14.8782
13600.000000	80.974	-16.7139
13800.000000	80.184	-16.5263
14000.000000	79.230	-14.5277
14300.000000	78.603	-10.2819
14500.000000	78.323	-4.8860
14750.000000	78.754	-0.0053
15000.000000	79.446	3.4113
15250.000000	80.362	4.4778
15500.000000	81.522	-1.9116
15750.000000	81.646	-17.8703
16000.000000	79.416	-35.3067
16250.000000	76.347	-40.7039
16500.000000	72.754	-36.6224
16750.000000	69.804	-22.0442
17000.000000	68.133	-2.5303
17250.000000	67.393	9.0352
17500.000000	65.089	21.6710
17750.000000	63.508	46.4598
18000.000000	63.754	74.5570
18250.000000	65.477	92.4286
18500.000000	67.278	103.2864
18750.000000	68.789	101.7776
19000.000000	69.188	100.9907
19250.000000	69.799	91.0051
19500.000000	68.753	74.2006
19750.000000	66.918	61.8883
