* Measurement data measured by REW V5.30.9
* Source: Microphone (Realtek USB2.0 Audio), no input selected, L, volume: no control
* Format: 512k Log Swept Sine, 1 sweep at -12.0 dBFS with no timing reference
* Dated: 04 5, 24 10:45:35 AM
* REW Settings:
*  C-weighting compensation: Off
*  Target level: 75.0 dB
* Note: ; 
* Measurement: edx pro 2024 R
* Smoothing: None
* Frequency Step: 1/48 octave
* Start Frequency: 1.000 Hz
*
* Freq(Hz)	SPL(dB)	Phase(degrees)
1.000000	49.136	-73.4359
1.015000	48.958	-74.2717
1.030000	48.783	-75.1635
1.044000	48.623	-76.0514
1.060000	48.443	-77.1189
1.075000	48.276	-78.1583
1.090000	48.108	-79.2229
1.106000	47.927	-80.3726
1.120000	47.766	-81.3793
1.138000	47.553	-82.6582
1.150000	47.406	-83.4917
1.172000	47.123	-84.9570
1.180000	47.015	-85.4637
1.206000	46.643	-86.9849
1.220000	46.427	-87.7084
1.241000	46.078	-88.6414
1.250000	45.919	-88.9783
1.265000	45.640	-89.4463
1.280000	45.343	-89.7868
1.315000	44.566	-90.0183
1.320000	44.445	-89.9805
1.340000	43.933	-89.6341
1.360000	43.352	-88.9880
1.380000	42.644	-88.1254
1.400000	41.825	-87.0576
1.430000	40.437	-85.0844
1.450000	39.436	-83.5298
1.475000	38.135	-81.3284
1.500000	36.819	-78.8508
1.525000	35.527	-76.1090
1.550000	34.302	-73.1145
1.575000	33.185	-69.8792
1.600000	32.216	-66.4148
1.625000	31.436	-62.7329
1.650000	30.887	-58.8454
1.675000	30.610	-54.7640
1.700000	30.638	-50.3144
1.725000	30.950	-45.0581
1.750000	31.509	-39.1228
1.775000	32.276	-32.6696
1.800000	33.214	-25.8597
1.825000	34.283	-18.8542
1.850000	35.446	-11.8144
1.875000	36.665	-4.9014
1.900000	37.902	1.7236
1.925000	39.118	7.8994
1.950000	40.275	13.4650
1.975000	41.336	18.2591
2.000000	42.261	22.1205
2.030000	43.157	25.3242
2.060000	43.945	27.1403
2.090000	44.674	27.8041
2.120000	45.349	27.5036
2.140000	45.773	26.8605
2.180000	46.567	24.7622
2.200000	46.941	23.4185
2.240000	47.654	20.4208
2.270000	48.164	18.1204
2.300000	48.662	15.9843
2.330000	49.153	14.2006
2.360000	49.644	12.9477
2.400000	50.270	11.5377
2.430000	50.708	10.4448
2.470000	51.257	8.9611
2.500000	51.647	7.8426
2.540000	52.144	6.3641
2.580000	52.620	4.9241
2.620000	53.085	3.5483
2.650000	53.430	2.5741
2.690000	53.891	1.3726
2.720000	54.236	0.5316
2.760000	54.680	-0.5539
2.800000	55.110	-1.5881
2.850000	55.631	-2.7912
2.900000	56.136	-3.8738
2.950000	56.631	-4.8135
3.000000	57.119	-5.5877
3.040000	57.507	-6.0758
3.070000	57.795	-6.3859
3.110000	58.172	-6.7316
3.150000	58.542	-6.9896
3.200000	58.996	-7.1719
3.250000	59.444	-7.1781
3.300000	59.885	-6.9867
3.350000	60.323	-6.5759
3.400000	60.756	-5.9338
3.450000	61.183	-5.0803
3.500000	61.605	-4.0241
3.550000	62.020	-2.7727
3.600000	62.431	-1.3334
3.650000	62.838	0.2864
3.700000	63.241	2.0793
3.750000	63.640	4.1209
3.820000	64.192	7.4380
3.870000	64.580	10.0256
3.950000	65.193	14.3206
4.000000	65.571	16.9761
4.060000	66.019	20.0322
4.120000	66.461	23.1675
4.180000	66.898	26.3603
4.250000	67.399	30.0082
4.310000	67.822	32.9405
4.370000	68.239	35.5746
4.440000	68.718	38.2684
4.500000	69.122	40.3469
4.550000	69.454	41.9210
4.620000	69.912	43.8896
4.680000	70.297	45.3647
4.750000	70.740	46.8266
4.820000	71.174	47.9575
4.870000	71.479	48.5947
4.940000	71.899	49.3041
5.000000	72.254	49.7920
5.080000	72.718	50.3307
5.150000	73.115	50.6155
5.220000	73.505	50.7413
5.300000	73.943	50.7500
5.380000	74.372	50.6809
5.450000	74.740	50.5515
5.520000	75.102	50.3220
5.600000	75.507	49.9797
5.700000	76.003	49.5045
5.800000	76.489	49.0118
5.900000	76.963	48.4564
6.000000	77.426	47.8793
6.080000	77.790	47.4301
6.150000	78.103	47.0419
6.220000	78.412	46.6527
6.300000	78.758	46.2061
6.400000	79.184	45.6440
6.500000	79.601	45.0847
6.600000	80.010	44.5224
6.700000	80.410	43.9405
6.800000	80.803	43.3269
6.900000	81.187	42.6886
7.000000	81.564	42.0304
7.100000	81.935	41.3561
7.200000	82.298	40.6630
7.300000	82.654	39.9533
7.400000	83.004	39.2314
7.500000	83.347	38.4910
7.620000	83.752	37.5839
7.750000	84.182	36.6153
7.880000	84.602	35.6682
8.000000	84.982	34.8107
8.120000	85.356	33.9809
8.250000	85.753	33.1122
8.380000	86.141	32.2718
8.500000	86.492	31.5210
8.620000	86.836	30.7946
8.750000	87.200	30.0308
8.850000	87.474	29.4609
9.000000	87.875	28.6317
9.120000	88.188	27.9792
9.250000	88.517	27.2801
9.380000	88.837	26.5977
9.500000	89.126	25.9884
9.620000	89.407	25.3968
9.750000	89.704	24.7775
9.880000	89.995	24.1818
10.000000	90.258	23.6520
10.150000	90.580	23.0155
10.300000	90.896	22.4075
10.440000	91.187	21.8659
10.600000	91.515	21.2826
10.750000	91.818	20.7573
10.900000	92.118	20.2424
11.060000	92.433	19.7038
11.200000	92.704	19.2297
11.380000	93.046	18.6203
11.500000	93.268	18.2157
11.720000	93.664	17.4774
11.800000	93.804	17.2129
12.060000	94.244	16.3668
12.200000	94.471	15.9284
12.410000	94.801	15.2974
12.500000	94.940	15.0467
12.650000	95.166	14.6559
12.800000	95.388	14.2838
13.150000	95.881	13.4640
13.200000	95.919	13.3447
13.400000	96.003	12.8646
13.600000	96.037	12.3949
13.800000	96.038	11.9210
14.000000	96.048	11.4162
14.300000	96.063	10.5968
14.500000	96.068	10.0391
14.750000	96.057	9.3913
15.000000	96.041	8.7792
15.250000	96.028	8.1953
15.500000	96.020	7.6430
15.750000	96.008	7.1542
16.000000	96.005	6.6559
16.250000	96.012	6.1195
16.500000	96.024	5.5378
16.750000	96.024	4.9521
17.000000	96.020	4.3550
17.250000	96.013	3.7659
17.500000	96.003	3.2103
17.750000	95.984	2.7382
18.000000	95.970	2.3165
18.250000	95.966	1.9215
18.500000	95.972	1.5303
18.750000	95.981	1.1285
19.000000	95.994	0.6691
19.250000	96.009	0.1440
19.500000	96.020	-0.4397
19.750000	96.015	-1.0342
20.000000	95.999	-1.6234
20.299999	95.972	-2.2880
20.600000	95.937	-2.8610
20.900000	95.900	-3.3285
21.200001	95.875	-3.7507
21.400000	95.865	-4.0302
21.799999	95.848	-4.6141
22.000000	95.840	-4.9433
22.400000	95.819	-5.6598
22.700001	95.790	-6.1746
23.000000	95.756	-6.6360
23.299999	95.725	-7.0473
23.600000	95.700	-7.4069
24.000000	95.679	-7.8664
24.299999	95.673	-8.2742
24.700001	95.658	-8.8924
25.000000	95.635	-9.3730
25.400000	95.594	-9.9787
25.799999	95.545	-10.4421
26.200001	95.510	-10.8293
26.500000	95.493	-11.1385
26.900000	95.468	-11.6299
27.200001	95.441	-12.0810
27.600000	95.377	-12.6707
28.000000	95.283	-13.0961
28.500000	95.168	-13.3119
29.000000	95.088	-13.2901
29.500000	95.055	-13.3655
30.000000	95.027	-13.6510
30.400000	94.996	-13.9906
30.700001	94.965	-14.2316
31.100000	94.927	-14.5142
31.500000	94.905	-14.8112
32.000000	94.894	-15.3056
32.500000	94.890	-16.0818
33.000000	94.855	-17.0532
33.500000	94.779	-18.0819
34.000000	94.663	-18.8924
34.500000	94.543	-19.3602
35.000000	94.451	-19.4841
35.500000	94.418	-19.5137
36.000000	94.426	-19.6635
36.500000	94.448	-20.0757
37.000000	94.451	-20.6195
37.500000	94.435	-21.1625
38.200001	94.399	-21.7511
38.700001	94.385	-22.1170
39.500000	94.373	-22.8664
40.000000	94.350	-23.4776
40.599998	94.289	-24.2202
41.200001	94.205	-24.7571
41.799999	94.138	-25.1112
42.500000	94.094	-25.6090
43.099998	94.047	-26.2084
43.700001	93.975	-26.7782
44.400002	93.895	-27.2319
45.000000	93.845	-27.6233
45.500000	93.799	-28.0297
46.200001	93.713	-28.5081
46.799999	93.649	-28.7545
47.500000	93.597	-29.0836
48.200001	93.535	-29.5369
48.700001	93.481	-29.8011
49.400002	93.425	-30.0978
50.000000	93.388	-30.5043
50.799999	93.299	-31.1811
51.500000	93.200	-31.4899
52.200001	93.144	-31.6598
53.000000	93.098	-32.1637
53.799999	93.006	-32.6742
54.500000	92.934	-32.8288
55.200001	92.904	-33.0620
56.000000	92.848	-33.6560
57.000000	92.709	-34.0891
58.000000	92.636	-34.1948
59.000000	92.568	-34.7911
60.000000	92.436	-35.2403
60.799999	92.353	-35.3592
61.500000	92.304	-35.5415
62.200001	92.250	-35.8424
63.000000	92.175	-36.1725
64.000000	92.089	-36.4697
65.000000	92.012	-36.8473
66.000000	91.922	-37.1944
67.000000	91.843	-37.4713
68.000000	91.763	-37.8582
69.000000	91.664	-38.1843
70.000000	91.571	-38.3793
71.000000	91.494	-38.6112
72.000000	91.419	-38.8358
73.000000	91.350	-39.1334
74.000000	91.261	-39.4508
75.000000	91.174	-39.6272
76.199997	91.087	-39.8845
77.500000	90.983	-40.1700
78.800003	90.877	-40.4017
80.000000	90.791	-40.6097
81.199997	90.696	-40.9019
82.500000	90.587	-41.1059
83.800003	90.486	-41.2791
85.000000	90.402	-41.3962
86.199997	90.330	-41.6123
87.500000	90.225	-41.8519
88.500000	90.159	-41.9480
90.000000	90.040	-42.2429
91.199997	89.967	-42.3269
92.500000	89.869	-42.6560
93.800003	89.784	-42.7093
95.000000	89.720	-42.9780
96.199997	89.630	-43.1612
97.500000	89.548	-43.2577
98.800003	89.466	-43.3530
100.000000	89.395	-43.3967
101.500000	89.308	-43.5438
103.000000	89.204	-43.5988
104.400002	89.115	-43.7060
106.000000	89.008	-43.7418
107.500000	88.918	-43.7987
109.000000	88.831	-43.9497
110.599998	88.731	-44.0884
112.000000	88.636	-44.0275
113.800003	88.537	-44.2423
115.000000	88.458	-44.1386
117.199997	88.329	-44.2944
118.000000	88.294	-44.2496
120.599998	88.119	-44.2256
122.000000	88.071	-44.3127
124.099998	87.953	-44.2152
125.000000	87.884	-44.2139
126.500000	87.810	-43.9794
128.000000	87.760	-43.9595
131.500000	87.626	-43.9232
132.000000	87.605	-43.9242
134.000000	87.530	-43.7984
136.000000	87.455	-43.8795
138.000000	87.392	-43.9409
140.000000	87.318	-44.0855
143.000000	87.206	-44.3793
145.000000	87.109	-44.3303
147.500000	86.990	-44.2786
150.000000	86.886	-44.1433
152.500000	86.793	-44.2113
155.000000	86.680	-44.2225
157.500000	86.569	-44.3129
160.000000	86.453	-44.3340
162.500000	86.327	-44.2565
165.000000	86.213	-44.0860
167.500000	86.078	-43.8863
170.000000	85.944	-43.6419
172.500000	85.804	-43.5786
175.000000	85.684	-43.4237
177.500000	85.569	-43.2074
180.000000	85.464	-42.9485
182.500000	85.330	-42.6330
185.000000	85.199	-42.2622
187.500000	85.108	-41.8629
190.000000	84.994	-41.2968
192.500000	84.923	-40.7397
195.000000	84.857	-40.1436
197.500000	84.817	-39.5342
200.000000	84.803	-39.2004
203.000000	84.802	-39.0358
206.000000	84.797	-38.9645
209.000000	84.761	-39.0067
212.000000	84.707	-38.9836
214.000000	84.675	-38.9671
218.000000	84.579	-38.9001
220.000000	84.538	-38.8508
224.000000	84.467	-38.6915
227.000000	84.419	-38.6729
230.000000	84.359	-38.7572
233.000000	84.292	-38.7644
236.000000	84.203	-38.7016
240.000000	84.087	-38.7083
243.000000	84.000	-38.5638
247.000000	83.894	-38.3964
250.000000	83.790	-38.1105
254.000000	83.695	-37.9088
258.000000	83.580	-37.5578
262.000000	83.488	-37.2158
265.000000	83.416	-37.0008
269.000000	83.331	-36.6107
272.000000	83.257	-36.4221
276.000000	83.178	-36.0480
280.000000	83.082	-35.6953
285.000000	82.990	-35.2530
290.000000	82.887	-34.7334
295.000000	82.819	-34.1985
300.000000	82.750	-33.8274
304.000000	82.715	-33.3513
307.000000	82.668	-33.1322
311.000000	82.589	-33.1445
315.000000	82.532	-32.8541
320.000000	82.448	-32.6924
325.000000	82.362	-32.3209
330.000000	82.273	-32.0203
335.000000	82.196	-31.6233
340.000000	82.104	-31.2507
345.000000	82.025	-30.8689
350.000000	81.951	-30.4956
355.000000	81.872	-30.0929
360.000000	81.794	-29.7242
365.000000	81.723	-29.2608
370.000000	81.647	-28.8182
375.000000	81.568	-28.4332
382.000000	81.476	-27.8469
387.000000	81.420	-27.4021
395.000000	81.318	-26.8041
400.000000	81.244	-26.3460
406.000000	81.187	-25.8544
412.000000	81.110	-25.3018
418.000000	81.053	-24.7953
425.000000	80.980	-24.1187
431.000000	80.912	-23.7469
437.000000	80.866	-23.2488
444.000000	80.795	-22.5688
450.000000	80.740	-22.0670
455.000000	80.684	-21.6489
462.000000	80.626	-21.0107
468.000000	80.568	-20.5361
475.000000	80.493	-19.8980
482.000000	80.450	-19.3418
487.000000	80.415	-18.9496
494.000000	80.354	-18.3059
500.000000	80.307	-17.8024
508.000000	80.256	-17.1712
515.000000	80.188	-16.4916
522.000000	80.145	-15.9605
530.000000	80.081	-15.2321
538.000000	80.046	-14.6349
545.000000	80.005	-13.9974
552.000000	79.971	-13.3903
560.000000	79.921	-12.7148
570.000000	79.882	-11.8284
580.000000	79.838	-10.9815
590.000000	79.789	-10.0738
600.000000	79.747	-9.3379
608.000000	79.720	-8.6095
615.000000	79.687	-8.0454
622.000000	79.662	-7.4624
630.000000	79.648	-6.7403
640.000000	79.594	-6.0260
650.000000	79.557	-5.0958
660.000000	79.544	-4.2732
670.000000	79.516	-3.4512
680.000000	79.494	-2.5378
690.000000	79.472	-1.6682
700.000000	79.465	-0.8191
710.000000	79.449	-0.0137
720.000000	79.432	0.8705
730.000000	79.422	1.6964
740.000000	79.417	2.5477
750.000000	79.416	3.4010
762.000000	79.420	4.3403
775.000000	79.425	5.4635
788.000000	79.432	6.5641
800.000000	79.435	7.5648
812.000000	79.442	8.5975
825.000000	79.457	9.6618
838.000000	79.475	10.7128
850.000000	79.468	11.7447
862.000000	79.469	12.8398
875.000000	79.430	14.4045
885.000000	79.532	16.3583
900.000000	79.732	17.1414
912.000000	79.792	18.4536
925.000000	80.014	19.4408
938.000000	80.113	19.5667
950.000000	80.168	20.1779
962.000000	80.222	20.8106
975.000000	80.299	21.5919
988.000000	80.366	22.3871
1000.000000	80.446	23.0680
1015.000000	80.551	23.8705
1030.000000	80.652	24.7765
1044.000000	80.753	25.4499
1060.000000	80.885	26.2567
1075.000000	81.002	26.9478
1090.000000	81.114	27.5751
1106.000000	81.243	28.3499
1120.000000	81.346	28.8542
1138.000000	81.496	29.5318
1150.000000	81.576	29.8650
1172.000000	81.739	30.5430
1180.000000	81.791	30.7636
1206.000000	82.008	31.4529
1220.000000	82.098	31.8261
1241.000000	82.249	32.3503
1250.000000	82.312	32.5628
1265.000000	82.424	32.8655
1280.000000	82.536	33.3022
1315.000000	82.793	34.0569
1320.000000	82.822	34.1800
1340.000000	82.939	34.5211
1360.000000	83.076	34.9173
1380.000000	83.209	35.3214
1400.000000	83.354	35.6179
1430.000000	83.571	36.1318
1450.000000	83.694	36.5688
1475.000000	83.857	36.9315
1500.000000	84.031	37.2772
1525.000000	84.201	37.7117
1550.000000	84.378	38.0016
1575.000000	84.530	38.4451
1600.000000	84.710	38.7342
1625.000000	84.870	38.9788
1650.000000	85.046	39.2218
1675.000000	85.218	39.3446
1700.000000	85.389	39.5458
1725.000000	85.565	39.6524
1750.000000	85.734	39.7728
1775.000000	85.891	39.8729
1800.000000	86.067	39.8335
1825.000000	86.231	39.9256
1850.000000	86.389	39.8593
1875.000000	86.542	39.8618
1900.000000	86.695	39.8630
1925.000000	86.844	39.7685
1950.000000	86.982	39.8135
1975.000000	87.110	39.8271
2000.000000	87.243	39.9948
2030.000000	87.412	40.2906
2060.000000	87.622	40.9122
2090.000000	87.906	41.6414
2120.000000	88.294	41.9486
2140.000000	88.569	41.6378
2180.000000	89.076	40.2990
2200.000000	89.279	39.2833
2240.000000	89.617	37.2748
2270.000000	89.813	35.7362
2300.000000	89.983	34.2989
2330.000000	90.132	32.8982
2360.000000	90.266	31.4692
2400.000000	90.418	29.6475
2430.000000	90.511	28.3312
2470.000000	90.617	26.5086
2500.000000	90.675	25.2490
2540.000000	90.752	23.4683
2580.000000	90.787	21.7285
2620.000000	90.800	20.0445
2650.000000	90.775	18.8907
2690.000000	90.714	17.5842
2720.000000	90.684	16.5939
2760.000000	90.620	15.8210
2800.000000	90.567	15.0463
2850.000000	90.526	14.6079
2900.000000	90.545	13.7280
2950.000000	90.598	13.0727
3000.000000	90.550	11.8193
3040.000000	90.501	11.3198
3070.000000	90.529	10.6892
3110.000000	90.462	10.2316
3150.000000	90.414	9.2567
3200.000000	90.270	8.8101
3250.000000	90.229	8.3036
3300.000000	90.198	8.4676
3350.000000	90.077	8.0311
3400.000000	90.034	7.1528
3450.000000	89.987	6.6980
3500.000000	89.970	7.3001
3550.000000	89.960	6.5296
3600.000000	89.921	7.2988
3650.000000	89.854	6.3917
3700.000000	89.912	5.8126
3750.000000	89.848	6.4515
3820.000000	89.895	5.5445
3870.000000	89.926	5.8736
3950.000000	89.985	5.2299
4000.000000	89.809	4.5119
4060.000000	89.755	4.4384
4120.000000	89.985	3.2019
4180.000000	90.018	3.0841
4250.000000	90.064	2.1393
4310.000000	90.108	1.6905
4370.000000	90.035	-0.8956
4440.000000	89.982	-2.1768
4500.000000	89.914	-3.5399
4550.000000	89.856	-4.9825
4620.000000	89.842	-6.1140
4680.000000	89.592	-7.9914
4750.000000	89.461	-8.9927
4820.000000	89.139	-11.5167
4870.000000	89.027	-12.3497
4940.000000	88.786	-13.1462
5000.000000	88.616	-14.4459
5080.000000	88.116	-15.0244
5150.000000	87.756	-15.3921
5220.000000	87.403	-16.2598
5300.000000	86.913	-16.2532
5380.000000	86.409	-16.1736
5450.000000	86.253	-15.3985
5520.000000	85.884	-14.6402
5600.000000	85.608	-14.1501
5700.000000	85.050	-13.4090
5800.000000	84.622	-11.2641
5900.000000	84.361	-9.1895
6000.000000	84.135	-7.6857
6080.000000	83.833	-6.2588
6150.000000	83.554	-4.0586
6220.000000	83.423	-2.8363
6300.000000	83.416	-0.4129
6400.000000	83.461	1.6515
6500.000000	83.325	3.6323
6600.000000	83.434	7.9824
6700.000000	83.680	9.9487
6800.000000	83.980	12.9324
6900.000000	84.250	16.3775
7000.000000	84.550	18.2570
7100.000000	85.197	19.9713
7200.000000	85.940	21.9109
7300.000000	86.742	22.3011
7400.000000	87.523	23.5988
7500.000000	88.623	21.2548
7620.000000	90.016	18.9581
7750.000000	91.314	10.3474
7880.000000	92.370	-3.6003
8000.000000	92.643	-17.2066
8120.000000	91.460	-30.2296
8250.000000	89.768	-39.1683
8380.000000	88.006	-43.8622
8500.000000	86.641	-45.8700
8620.000000	85.113	-45.1052
8750.000000	84.019	-43.2725
8850.000000	83.077	-41.2116
9000.000000	81.946	-38.1884
9120.000000	81.217	-33.6299
9250.000000	80.459	-29.8860
9380.000000	79.782	-25.2992
9500.000000	79.336	-22.0492
9620.000000	78.746	-17.3874
9750.000000	78.380	-13.0520
9880.000000	78.083	-9.0443
10000.000000	77.971	-3.9930
10150.000000	77.808	1.5449
10300.000000	77.671	5.6082
10440.000000	77.874	10.9680
10600.000000	77.995	15.5858
10750.000000	78.284	18.0539
10900.000000	78.751	21.7285
11060.000000	79.179	22.9165
11200.000000	79.948	23.5140
11380.000000	80.599	21.8663
11500.000000	81.000	17.8855
11720.000000	81.651	9.1947
11800.000000	81.641	4.8656
12060.000000	80.700	-9.1337
12200.000000	79.673	-14.0900
12410.000000	78.137	-18.3106
12500.000000	77.474	-18.9938
12650.000000	76.445	-19.4950
12800.000000	75.541	-19.2878
13150.000000	73.904	-14.6602
13200.000000	73.770	-12.5376
13400.000000	73.208	-8.8442
13600.000000	72.884	-3.7280
13800.000000	72.997	0.8408
14000.000000	72.989	5.8842
14300.000000	73.833	12.3375
14500.000000	74.426	16.8973
14750.000000	75.979	18.6691
15000.000000	77.585	15.0083
15250.000000	78.501	2.8199
15500.000000	77.503	-13.6442
15750.000000	74.758	-21.4962
16000.000000	71.895	-20.2468
16250.000000	70.139	-12.0270
16500.000000	68.408	-2.7083
16750.000000	67.122	9.3631
17000.000000	66.165	20.6493
17250.000000	65.338	32.6411
17500.000000	64.552	44.4927
17750.000000	64.253	53.0926
18000.000000	63.938	62.4496
18250.000000	63.601	62.7469
18500.000000	61.026	58.5692
18750.000000	58.887	91.8621
19000.000000	62.558	92.5315
19250.000000	64.776	73.4259
19500.000000	65.841	43.3761
19750.000000	65.955	13.2172
