* Measurement data measured by REW V5.30.9
* Source: Microphone (Realtek USB2.0 Audio), MICROPHONE (Master Volume), L, volume: 0.500
* Format: 512k Log Swept Sine, 1 sweep at -12.0 dBFS with no timing reference
* Dated: 04 27, 24 6:56:30 PM
* REW Settings:
*  C-weighting compensation: Off
*  Target level: 75.0 dB
* Note: ; 
* Measurement: falcuti stock ss L
* Smoothing: None
* Frequency Step: 1/48 octave
* Start Frequency: 1.000 Hz
*
* Freq(Hz)	SPL(dB)	Phase(degrees)
1.000000	48.205	-62.1033
1.015000	47.980	-62.6836
1.030000	47.753	-63.3523
1.044000	47.539	-64.0649
1.060000	47.293	-64.9638
1.075000	47.059	-65.8690
1.090000	46.821	-66.8154
1.106000	46.562	-67.8492
1.120000	46.331	-68.7567
1.138000	46.026	-69.9020
1.150000	45.817	-70.6374
1.172000	45.421	-71.8910
1.180000	45.272	-72.3071
1.206000	44.771	-73.4673
1.220000	44.488	-73.9453
1.241000	44.046	-74.4281
1.250000	43.849	-74.5379
1.265000	43.511	-74.5766
1.280000	43.159	-74.4183
1.315000	42.281	-73.1780
1.320000	42.149	-72.8910
1.340000	41.602	-71.4409
1.360000	41.001	-69.4543
1.380000	40.294	-66.8846
1.400000	39.495	-63.7897
1.430000	38.162	-58.3001
1.450000	37.211	-54.1672
1.475000	35.985	-48.5793
1.500000	34.750	-42.6371
1.525000	33.542	-36.4634
1.550000	32.397	-30.1809
1.575000	31.351	-23.9123
1.600000	30.440	-17.7804
1.625000	29.698	-11.9079
1.650000	29.163	-6.4176
1.675000	28.869	-1.4320
1.700000	28.851	3.1192
1.725000	29.100	7.6944
1.750000	29.580	12.2806
1.775000	30.254	16.8332
1.800000	31.084	21.3077
1.825000	32.034	25.6596
1.850000	33.065	29.8442
1.875000	34.141	33.8170
1.900000	35.225	37.5335
1.925000	36.279	40.9491
1.950000	37.266	44.0192
1.975000	38.148	46.6993
2.000000	38.889	48.9448
2.030000	39.553	50.9938
2.060000	40.090	52.2313
2.090000	40.547	52.7377
2.120000	40.932	52.6319
2.140000	41.155	52.2800
2.180000	41.531	51.0591
2.200000	41.691	50.2607
2.240000	41.968	48.4639
2.270000	42.150	47.0800
2.300000	42.321	45.7972
2.330000	42.492	44.7342
2.360000	42.672	44.0036
2.400000	42.883	43.1724
2.430000	43.008	42.5098
2.470000	43.136	41.5965
2.500000	43.210	40.9044
2.540000	43.285	39.9946
2.580000	43.341	39.1252
2.620000	43.390	38.3241
2.650000	43.426	37.7849
2.690000	43.481	37.1705
2.720000	43.521	36.7737
2.760000	43.555	36.2810
2.800000	43.573	35.8419
2.850000	43.582	35.3883
2.900000	43.590	35.0647
2.950000	43.611	34.8967
3.000000	43.659	34.9100
3.040000	43.725	35.0670
3.070000	43.781	35.2610
3.110000	43.861	35.6130
3.150000	43.949	36.0706
3.200000	44.076	36.7897
3.250000	44.228	37.6700
3.300000	44.413	38.7095
3.350000	44.636	39.9061
3.400000	44.903	41.2699
3.450000	45.210	42.8239
3.500000	45.553	44.5487
3.550000	45.925	46.4223
3.600000	46.322	48.4231
3.650000	46.737	50.5292
3.700000	47.166	52.7188
3.750000	47.616	55.0580
3.820000	48.295	58.6440
3.870000	48.804	61.3373
3.950000	49.638	65.6912
4.000000	50.160	68.3368
4.060000	50.778	71.3504
4.120000	51.402	74.3658
4.180000	52.033	77.3682
4.250000	52.770	80.7390
4.310000	53.396	83.4157
4.370000	54.008	85.8045
4.440000	54.709	88.2161
4.500000	55.302	90.0336
4.550000	55.790	91.3836
4.620000	56.462	93.0393
4.680000	57.027	94.2569
4.750000	57.671	95.4398
4.820000	58.300	96.3038
4.870000	58.741	96.7563
4.940000	59.346	97.2152
5.000000	59.854	97.4953
5.080000	60.515	97.7675
5.150000	61.078	97.8322
5.220000	61.628	97.7473
5.300000	62.240	97.5216
5.380000	62.835	97.2196
5.450000	63.343	96.8871
5.520000	63.838	96.4582
5.600000	64.389	95.8903
5.700000	65.056	95.1334
5.800000	65.698	94.3551
5.900000	66.317	93.5121
6.000000	66.912	92.6523
6.080000	67.373	91.9844
6.150000	67.765	91.4063
6.220000	68.145	90.8301
6.300000	68.567	90.1782
6.400000	69.078	89.3808
6.500000	69.569	88.6070
6.600000	70.040	87.8505
6.700000	70.495	87.1035
6.800000	70.936	86.3602
6.900000	71.360	85.6234
7.000000	71.771	84.8974
7.100000	72.173	84.1865
7.200000	72.563	83.4921
7.300000	72.943	82.8097
7.400000	73.316	82.1347
7.500000	73.682	81.4625
7.620000	74.112	80.6653
7.750000	74.569	79.8286
7.880000	75.018	79.0242
8.000000	75.424	78.3070
8.120000	75.823	77.6145
8.250000	76.246	76.8911
8.380000	76.660	76.1984
8.500000	77.033	75.5867
8.620000	77.396	75.0008
8.750000	77.780	74.4068
8.850000	78.069	73.9820
9.000000	78.490	73.3932
9.120000	78.820	72.9646
9.250000	79.170	72.5422
9.380000	79.515	72.1651
9.500000	79.832	71.8628
9.620000	80.147	71.6053
9.750000	80.490	71.3519
9.880000	80.836	71.1227
10.000000	81.158	70.9282
10.150000	81.566	70.6614
10.300000	81.980	70.3757
10.440000	82.369	70.0653
10.600000	82.816	69.6485
10.750000	83.233	69.1916
10.900000	83.644	68.6521
11.060000	84.074	67.9994
11.200000	84.438	67.3718
11.380000	84.888	66.4933
11.500000	85.174	65.8982
11.720000	85.670	64.7819
11.800000	85.842	64.3908
12.060000	86.367	63.1719
12.200000	86.633	62.5836
12.410000	87.014	61.7973
12.500000	87.173	61.5092
12.650000	87.433	61.0961
12.800000	87.692	60.7408
13.150000	88.279	60.0955
13.200000	88.333	60.0109
13.400000	88.483	59.6878
13.600000	88.593	59.3741
13.800000	88.676	59.0463
14.000000	88.774	58.6590
14.300000	88.927	57.9447
14.500000	89.026	57.4034
14.750000	89.131	56.7128
15.000000	89.226	55.9963
15.250000	89.316	55.2619
15.500000	89.401	54.5310
15.750000	89.472	53.8600
16.000000	89.544	53.2019
16.250000	89.621	52.5407
16.500000	89.701	51.8758
16.750000	89.769	51.2461
17.000000	89.837	50.6279
17.250000	89.906	50.0248
17.500000	89.977	49.4472
17.750000	90.042	48.9305
18.000000	90.111	48.4391
18.250000	90.190	47.9543
18.500000	90.276	47.4615
18.750000	90.360	46.9608
19.000000	90.448	46.4163
19.250000	90.536	45.8238
19.500000	90.620	45.1908
19.750000	90.691	44.5568
20.000000	90.754	43.9249
20.299999	90.822	43.1906
20.600000	90.881	42.5155
20.900000	90.933	41.9149
21.200001	90.988	41.3477
21.400000	91.026	40.9806
21.799999	91.096	40.2816
22.000000	91.130	39.9338
22.400000	91.195	39.2468
22.700001	91.239	38.7772
23.000000	91.284	38.3407
23.299999	91.336	37.9058
23.600000	91.392	37.4659
24.000000	91.471	36.8376
24.299999	91.533	36.2886
24.700001	91.607	35.4877
25.000000	91.651	34.8628
25.400000	91.701	34.0199
25.799999	91.738	33.2540
26.200001	91.779	32.5522
26.500000	91.814	32.0545
26.900000	91.865	31.4100
27.200001	91.910	30.8894
27.600000	91.969	30.1440
28.000000	92.018	29.3543
28.500000	92.065	28.3278
29.000000	92.083	27.4188
29.500000	92.095	26.6984
30.000000	92.117	26.1896
30.400000	92.159	25.8089
30.700001	92.200	25.4894
31.100000	92.260	24.9536
31.500000	92.312	24.2785
32.000000	92.343	23.3895
32.500000	92.347	22.5912
33.000000	92.341	22.0124
33.500000	92.356	21.5204
34.000000	92.384	20.9992
34.500000	92.414	20.3714
35.000000	92.429	19.7454
35.500000	92.444	19.1462
36.000000	92.461	18.5794
36.500000	92.480	17.9573
37.000000	92.491	17.3483
37.500000	92.505	16.7735
38.200001	92.536	15.9571
38.700001	92.557	15.2620
39.500000	92.549	14.1842
40.000000	92.542	13.7042
40.599998	92.567	13.1357
41.200001	92.594	12.3490
41.799999	92.580	11.5064
42.500000	92.541	10.8959
43.099998	92.545	10.5646
43.700001	92.575	10.0283
44.400002	92.577	9.2374
45.000000	92.553	8.6728
45.500000	92.535	8.2558
46.200001	92.502	7.6718
46.799999	92.458	7.2620
47.500000	92.417	7.0093
48.200001	92.421	6.7712
48.700001	92.442	6.4390
49.400002	92.459	5.7372
50.000000	92.447	5.0646
50.799999	92.409	4.3344
51.500000	92.391	3.8543
52.200001	92.386	3.3541
53.000000	92.375	2.8421
53.799999	92.400	2.4415
54.500000	92.445	1.7937
55.200001	92.436	0.8695
56.000000	92.352	0.1266
57.000000	92.289	-0.2169
58.000000	92.279	-0.8309
59.000000	92.238	-1.5725
60.000000	92.199	-2.1946
60.799999	92.179	-2.6469
61.500000	92.178	-3.0851
62.200001	92.162	-3.6993
63.000000	92.082	-4.2442
64.000000	92.025	-4.1374
65.000000	92.080	-4.6247
66.000000	92.012	-5.5995
67.000000	91.929	-6.0672
68.000000	91.857	-6.7253
69.000000	91.797	-7.0389
70.000000	91.820	-7.7230
71.000000	91.767	-8.7544
72.000000	91.691	-9.1330
73.000000	91.680	-9.4335
74.000000	91.631	-9.9567
75.000000	91.551	-10.0118
76.199997	91.531	-10.2367
77.500000	91.434	-10.7262
78.800003	91.370	-11.1919
80.000000	91.284	-11.7002
81.199997	91.244	-12.1511
82.500000	91.169	-12.9145
83.800003	91.081	-13.1078
85.000000	91.061	-13.7009
86.199997	90.907	-14.3565
87.500000	90.779	-13.9525
88.500000	90.815	-14.1235
90.000000	90.666	-15.2795
91.199997	90.468	-15.6968
92.500000	90.134	-14.4939
93.800003	90.121	-12.9813
95.000000	90.083	-11.7267
96.199997	90.126	-11.4138
97.500000	90.188	-9.7832
98.800003	90.424	-11.6411
100.000000	90.193	-11.0146
101.500000	90.638	-10.5637
103.000000	90.708	-12.4135
104.400002	90.795	-12.1525
106.000000	90.793	-13.7562
107.500000	90.848	-14.1755
109.000000	90.581	-14.5003
110.599998	90.736	-15.2249
112.000000	90.605	-16.1035
113.800003	90.506	-16.7241
115.000000	90.441	-17.5616
117.199997	90.405	-18.1521
118.000000	90.304	-18.4268
120.599998	90.172	-18.4645
122.000000	90.408	-19.3217
124.099998	90.169	-19.9429
125.000000	89.799	-20.6440
126.500000	90.019	-17.5243
128.000000	89.889	-20.6188
131.500000	89.766	-20.6748
132.000000	89.761	-20.6602
134.000000	89.738	-20.5446
136.000000	89.670	-20.4591
138.000000	89.544	-20.0545
140.000000	89.379	-20.0299
143.000000	89.360	-20.4519
145.000000	89.361	-20.4303
147.500000	89.280	-21.1129
150.000000	89.245	-21.2511
152.500000	89.180	-21.2567
155.000000	89.069	-21.7547
157.500000	89.041	-21.5930
160.000000	88.976	-21.7411
162.500000	88.851	-21.7852
165.000000	88.781	-22.0125
167.500000	88.697	-22.3514
170.000000	88.586	-22.2025
172.500000	88.509	-22.1976
175.000000	88.404	-22.2861
177.500000	88.317	-22.4386
180.000000	88.245	-22.2996
182.500000	88.157	-22.3982
185.000000	88.081	-22.3917
187.500000	88.001	-22.4650
190.000000	87.925	-22.3553
192.500000	87.812	-22.2598
195.000000	87.760	-22.1672
197.500000	87.675	-22.0683
200.000000	87.591	-22.1232
203.000000	87.492	-21.6460
206.000000	87.427	-21.3919
209.000000	87.412	-21.2203
212.000000	87.387	-20.6453
214.000000	87.401	-20.7877
218.000000	87.341	-20.9590
220.000000	87.308	-20.9829
224.000000	87.202	-20.9333
227.000000	87.144	-20.8514
230.000000	87.080	-20.9094
233.000000	87.015	-20.9438
236.000000	86.958	-20.8404
240.000000	86.898	-20.5736
243.000000	86.838	-20.4650
247.000000	86.761	-20.1932
250.000000	86.700	-20.1779
254.000000	86.646	-20.0544
258.000000	86.581	-19.6542
262.000000	86.499	-19.4231
265.000000	86.444	-19.2349
269.000000	86.387	-19.0964
272.000000	86.343	-18.9295
276.000000	86.276	-18.7327
280.000000	86.208	-18.4831
285.000000	86.139	-18.1980
290.000000	86.061	-17.8463
295.000000	85.985	-17.5088
300.000000	85.912	-17.2064
304.000000	85.857	-16.9598
307.000000	85.819	-16.7847
311.000000	85.764	-16.4436
315.000000	85.715	-16.1950
320.000000	85.644	-15.8165
325.000000	85.567	-15.6896
330.000000	85.544	-15.1795
335.000000	85.484	-14.8220
340.000000	85.433	-14.4872
345.000000	85.379	-14.1164
350.000000	85.322	-13.8085
355.000000	85.273	-13.4771
360.000000	85.223	-13.0975
365.000000	85.177	-12.7389
370.000000	85.123	-12.3861
375.000000	85.076	-12.0374
382.000000	85.002	-11.4878
387.000000	84.976	-11.1047
395.000000	84.912	-10.6228
400.000000	84.878	-10.2214
406.000000	84.831	-9.7616
412.000000	84.794	-9.3799
418.000000	84.745	-8.8659
425.000000	84.703	-8.3810
431.000000	84.675	-7.9474
437.000000	84.638	-7.5240
444.000000	84.588	-6.9929
450.000000	84.564	-6.5899
455.000000	84.532	-6.1882
462.000000	84.493	-5.6904
468.000000	84.460	-5.2827
475.000000	84.434	-4.7674
482.000000	84.397	-4.2666
487.000000	84.380	-3.8767
494.000000	84.350	-3.4158
500.000000	84.332	-2.9779
508.000000	84.295	-2.3474
515.000000	84.268	-1.8774
522.000000	84.244	-1.3418
530.000000	84.218	-0.7855
538.000000	84.187	-0.1684
545.000000	84.175	0.3233
552.000000	84.147	0.8242
560.000000	84.134	1.4150
570.000000	84.103	2.1264
580.000000	84.078	2.8247
590.000000	84.047	3.5771
600.000000	84.029	4.2890
608.000000	84.015	4.8867
615.000000	83.980	5.4246
622.000000	83.976	5.9283
630.000000	83.966	6.5044
640.000000	83.964	7.1920
650.000000	83.956	7.9880
660.000000	83.946	8.6835
670.000000	83.946	9.4544
680.000000	83.952	10.1576
690.000000	83.958	10.8839
700.000000	83.971	11.5647
710.000000	83.984	12.3897
720.000000	83.979	13.1049
730.000000	83.987	13.8357
740.000000	83.986	14.5956
750.000000	84.001	15.2880
762.000000	84.025	16.1656
775.000000	84.053	17.1297
788.000000	84.074	18.1351
800.000000	84.116	18.9625
812.000000	84.145	19.8930
825.000000	84.185	20.8483
838.000000	84.227	21.7292
850.000000	84.266	22.6590
862.000000	84.321	23.4751
875.000000	84.381	24.3784
885.000000	84.428	25.0453
900.000000	84.497	26.1618
912.000000	84.564	26.9427
925.000000	84.638	27.7826
938.000000	84.712	28.6014
950.000000	84.790	29.3455
962.000000	84.867	30.0886
975.000000	84.951	30.8392
988.000000	85.048	31.5767
1000.000000	85.139	32.2553
1015.000000	85.246	33.0401
1030.000000	85.364	33.7326
1044.000000	85.473	34.3754
1060.000000	85.601	35.1463
1075.000000	85.728	35.7004
1090.000000	85.841	36.2830
1106.000000	85.976	36.8646
1120.000000	86.087	37.3222
1138.000000	86.221	37.8357
1150.000000	86.309	38.2023
1172.000000	86.441	38.9616
1180.000000	86.503	39.3365
1206.000000	86.781	40.2047
1220.000000	86.911	40.3979
1241.000000	87.078	40.6599
1250.000000	87.144	40.7421
1265.000000	87.248	40.9534
1280.000000	87.357	41.1538
1315.000000	87.600	41.6387
1320.000000	87.638	41.7617
1340.000000	87.766	42.0178
1360.000000	87.899	42.2624
1380.000000	88.030	42.5261
1400.000000	88.160	42.8102
1430.000000	88.344	43.2066
1450.000000	88.467	43.5009
1475.000000	88.618	43.8013
1500.000000	88.775	44.1073
1525.000000	88.935	44.4022
1550.000000	89.088	44.7318
1575.000000	89.245	45.0066
1600.000000	89.399	45.3002
1625.000000	89.557	45.5824
1650.000000	89.710	45.8160
1675.000000	89.867	46.1036
1700.000000	90.026	46.2901
1725.000000	90.185	46.5131
1750.000000	90.345	46.7291
1775.000000	90.508	46.8712
1800.000000	90.677	47.0393
1825.000000	90.846	47.1563
1850.000000	91.013	47.2591
1875.000000	91.182	47.3081
1900.000000	91.352	47.3647
1925.000000	91.525	47.3605
1950.000000	91.696	47.2999
1975.000000	91.867	47.2844
2000.000000	92.031	47.2037
2030.000000	92.238	47.0443
2060.000000	92.452	46.8551
2090.000000	92.658	46.6138
2120.000000	92.866	46.3172
2140.000000	93.007	46.0601
2180.000000	93.279	45.5189
2200.000000	93.414	45.2053
2240.000000	93.684	44.5150
2270.000000	93.880	43.9020
2300.000000	94.061	43.2653
2330.000000	94.234	42.5974
2360.000000	94.402	41.8697
2400.000000	94.610	40.8504
2430.000000	94.753	40.0831
2470.000000	94.934	39.0173
2500.000000	95.063	38.2223
2540.000000	95.250	37.2303
2580.000000	95.418	36.0848
2620.000000	95.603	35.0379
2650.000000	95.724	34.1443
2690.000000	95.881	32.9112
2720.000000	96.019	31.7924
2760.000000	96.168	30.4530
2800.000000	96.298	28.6844
2850.000000	96.387	26.7565
2900.000000	96.433	24.4987
2950.000000	96.472	22.7952
3000.000000	96.417	20.8612
3040.000000	96.360	19.7896
3070.000000	96.376	18.7948
3110.000000	96.305	17.8843
3150.000000	96.246	16.4870
3200.000000	96.083	15.5361
3250.000000	96.018	14.4597
3300.000000	95.955	14.1580
3350.000000	95.800	13.2880
3400.000000	95.714	12.0189
3450.000000	95.618	11.1630
3500.000000	95.553	11.3718
3550.000000	95.474	10.2546
3600.000000	95.359	10.7259
3650.000000	95.218	9.5607
3700.000000	95.177	8.7853
3750.000000	94.997	9.3783
3820.000000	94.875	8.6506
3870.000000	94.793	9.3698
3950.000000	94.722	9.5638
4000.000000	94.493	9.3876
4060.000000	94.388	9.9711
4120.000000	94.566	9.3969
4180.000000	94.550	10.0282
4250.000000	94.559	10.0809
4310.000000	94.589	10.5743
4370.000000	94.512	9.0706
4440.000000	94.502	9.0744
4500.000000	94.494	8.8683
4550.000000	94.520	8.3082
4620.000000	94.632	8.3388
4680.000000	94.528	7.3166
4750.000000	94.570	7.1918
4820.000000	94.461	5.3080
4870.000000	94.493	4.8080
4940.000000	94.451	4.2359
5000.000000	94.453	3.0908
5080.000000	94.177	2.5456
5150.000000	94.009	2.1050
5220.000000	93.861	1.0870
5300.000000	93.593	0.6043
5380.000000	93.276	0.0380
5450.000000	93.283	0.3088
5520.000000	93.098	0.2110
5600.000000	92.976	-0.5475
5700.000000	92.541	-1.3983
5800.000000	92.212	-0.7591
5900.000000	92.026	-0.2649
6000.000000	91.838	-0.1117
6080.000000	91.548	0.2249
6150.000000	91.288	1.3788
6220.000000	91.158	1.6058
6300.000000	91.139	2.9665
6400.000000	91.172	3.5982
6500.000000	90.997	4.0735
6600.000000	91.064	6.7533
6700.000000	91.196	7.0249
6800.000000	91.373	8.1993
6900.000000	91.453	9.8897
7000.000000	91.514	10.0329
7100.000000	91.862	10.2496
7200.000000	92.228	10.8941
7300.000000	92.616	10.2507
7400.000000	92.900	11.0412
7500.000000	93.451	8.6616
7620.000000	94.110	7.6280
7750.000000	94.603	2.6519
7880.000000	95.127	-4.5617
8000.000000	95.508	-10.8782
8120.000000	94.954	-18.6851
8250.000000	94.091	-25.6995
8380.000000	92.986	-31.0280
8500.000000	92.023	-34.4913
8620.000000	90.730	-35.3864
8750.000000	89.779	-35.2011
8850.000000	88.903	-34.4851
9000.000000	87.802	-32.8618
9120.000000	87.078	-29.3554
9250.000000	86.285	-26.5884
9380.000000	85.575	-22.8430
9500.000000	85.096	-20.2586
9620.000000	84.429	-16.0919
9750.000000	83.999	-12.4889
9880.000000	83.614	-8.7562
10000.000000	83.423	-4.0615
10150.000000	83.148	1.2627
10300.000000	82.850	5.3324
10440.000000	82.905	10.9080
10600.000000	82.842	16.1091
10750.000000	82.933	19.7233
10900.000000	83.231	24.7715
11060.000000	83.432	28.3328
11200.000000	84.051	31.6886
11380.000000	84.653	35.1176
11500.000000	85.150	35.3560
11720.000000	86.540	35.6600
11800.000000	87.062	34.4558
12060.000000	88.649	24.5728
12200.000000	89.093	15.9548
12410.000000	88.951	0.2203
12500.000000	88.519	-5.5797
12650.000000	87.427	-14.3496
12800.000000	86.174	-20.3383
13150.000000	83.513	-24.9571
13200.000000	83.255	-24.4034
13400.000000	82.096	-23.8634
13600.000000	81.269	-22.1087
13800.000000	80.807	-20.3747
14000.000000	80.173	-18.2993
14300.000000	79.959	-16.2181
14500.000000	79.732	-14.1453
14750.000000	79.778	-13.5494
15000.000000	79.670	-13.4354
15250.000000	79.324	-13.0495
15500.000000	78.912	-13.8882
15750.000000	78.126	-15.0068
16000.000000	77.093	-15.3824
16250.000000	76.469	-14.2314
16500.000000	75.338	-13.2124
16750.000000	74.249	-9.9843
17000.000000	72.976	-7.6131
17250.000000	71.630	-3.2208
17500.000000	70.053	0.3015
17750.000000	68.532	2.4248
18000.000000	66.594	4.2519
18250.000000	64.369	0.6654
18500.000000	61.267	-9.2619
18750.000000	58.611	-32.8035
19000.000000	57.790	-69.9672
19250.000000	59.110	-92.0359
19500.000000	60.710	-104.9417
19750.000000	61.596	-103.6080
