* Measurement data measured by REW V5.20.13
* Source: Celest Pandamon L Filtered
* Format: 
* Dated: 02 13, 23 10:33:45 PM
* REW Settings:
*  C-weighting compensation: On
*  Target level: 75.0 dB
* Note: LS       Fc   200.0 Hz  Gain  -1.60 dB LS       Fc   100.0 Hz  Gain  -1.00 dB PK       Fc    6000 Hz  Gain   2.90 dB  Q  2.000 PK       Fc    7700 Hz  Gain -14.00 dB  Q 10.000 PK       Fc    9000 Hz  Gain   5.00 dB  Q 10.000 PK       Fc   10000 Hz  Gain   5.00 dB  Q 10.000 PK       Fc   11000 Hz  Gain   3.00 dB  Q 10.000 PK       Fc   15000 Hz  Gain   7.00 dB  Q  2.000 PK       Fc   17000 Hz  Gain  15.00 dB  Q  4.000 PK       Fc   18000 Hz  Gain   2.00 dB  Q  2.000 PK       Fc   19000 Hz  Gain  10.00 dB  Q  5.000 PK       Fc   18100 Hz  Gain   3.00 dB  Q  5.000
* Measurement: EQ Celest Pandamon L
* Smoothing: 1/2 octave
* Frequency Step: 1/48 octave
* Start Frequency: 1.000 Hz
*
* Freq(Hz)	SPL(dB)	Phase(degrees)
1.000000	14.566	155.7319
1.015000	14.452	155.1382
1.030000	14.335	154.4953
1.044000	14.224	153.8474
1.060000	14.093	153.0466
1.075000	13.967	152.2335
1.090000	13.838	151.3562
1.106000	13.696	150.3504
1.120000	13.565	149.4364
1.138000	13.385	148.2208
1.150000	13.260	147.3842
1.172000	13.019	145.7935
1.180000	12.928	145.1963
1.206000	12.624	143.1828
1.220000	12.455	142.0510
1.241000	12.198	140.2884
1.250000	12.087	139.5083
1.265000	11.900	138.1744
1.280000	11.713	136.7971
1.315000	11.280	133.4078
1.320000	11.219	132.9028
1.340000	10.978	130.8295
1.360000	10.743	128.6681
1.380000	10.517	126.4158
1.400000	10.301	124.0695
1.430000	10.001	120.3677
1.450000	9.820	117.7738
1.475000	9.614	114.3728
1.500000	9.400	110.6976
1.525000	9.175	106.7568
1.550000	8.947	102.5870
1.575000	8.720	98.2248
1.600000	8.501	93.7069
1.625000	8.296	89.0701
1.650000	8.111	84.3508
1.675000	7.951	79.5858
1.700000	7.823	74.8118
1.725000	7.734	70.0653
1.750000	7.688	65.3831
1.775000	7.692	60.8018
1.800000	7.752	56.3580
1.825000	7.874	52.0884
1.850000	8.067	47.9516
1.875000	8.338	43.7886
1.900000	8.677	39.6099
1.925000	9.076	35.4334
1.950000	9.525	31.2774
1.975000	10.015	27.1598
2.000000	10.537	23.0989
2.030000	11.193	18.3259
2.060000	11.866	13.6918
2.090000	12.541	9.2278
2.120000	13.201	4.9652
2.140000	13.626	2.2508
2.180000	14.415	-2.8307
2.200000	14.771	-5.1795
2.240000	15.456	-9.5237
2.270000	15.964	-12.5065
2.300000	16.466	-15.2735
2.330000	16.962	-17.8428
2.360000	17.451	-20.2325
2.400000	18.091	-23.1711
2.430000	18.562	-25.2127
2.470000	19.176	-27.7529
2.500000	19.626	-29.5451
2.540000	20.209	-31.8188
2.580000	20.774	-33.9757
2.620000	21.318	-35.8553
2.650000	21.713	-37.0804
2.690000	22.225	-38.5057
2.720000	22.599	-39.4449
2.760000	23.084	-40.5623
2.800000	23.558	-41.5694
2.850000	24.135	-42.7458
2.900000	24.701	-43.9177
2.950000	25.257	-45.1526
3.000000	25.796	-46.2924
3.040000	26.214	-47.1196
3.070000	26.522	-47.7010
3.110000	26.923	-48.4368
3.150000	27.316	-49.1422
3.200000	27.797	-50.0050
3.250000	28.267	-50.8758
3.300000	28.730	-51.7849
3.350000	29.182	-52.7097
3.400000	29.622	-53.6218
3.450000	30.050	-54.5244
3.500000	30.468	-55.4209
3.550000	30.877	-56.3144
3.600000	31.278	-57.2084
3.650000	31.672	-58.1059
3.700000	32.058	-59.0085
3.750000	32.435	-59.9128
3.820000	32.949	-61.1792
3.870000	33.306	-62.0827
3.950000	33.863	-63.5235
4.000000	34.203	-64.4192
4.060000	34.603	-65.4886
4.120000	34.993	-66.5557
4.180000	35.373	-67.6196
4.250000	35.805	-68.8542
4.310000	36.167	-69.9047
4.370000	36.521	-70.9461
4.440000	36.925	-72.1489
4.500000	37.263	-73.1728
4.550000	37.538	-74.0202
4.620000	37.915	-75.1963
4.680000	38.230	-76.1934
4.750000	38.590	-77.3420
4.820000	38.942	-78.4749
4.870000	39.187	-79.2757
4.940000	39.522	-80.3845
5.000000	39.802	-81.3228
5.080000	40.167	-82.5557
5.150000	40.477	-83.6166
5.220000	40.779	-84.6609
5.300000	41.113	-85.8349
5.380000	41.437	-86.9882
5.450000	41.711	-87.9806
5.520000	41.977	-88.9575
5.600000	42.272	-90.0539
5.700000	42.624	-91.3955
5.800000	42.961	-92.7072
5.900000	43.280	-93.9907
6.000000	43.583	-95.2440
6.080000	43.813	-96.2260
6.150000	44.006	-97.0713
6.220000	44.191	-97.9047
6.300000	44.393	-98.8420
6.400000	44.630	-99.9895
6.500000	44.852	-101.1127
6.600000	45.060	-102.2140
6.700000	45.254	-103.2925
6.800000	45.433	-104.3482
6.900000	45.599	-105.3827
7.000000	45.754	-106.3976
7.100000	45.896	-107.3916
7.200000	46.027	-108.3654
7.300000	46.149	-109.3204
7.400000	46.263	-110.2570
7.500000	46.367	-111.1744
7.620000	46.481	-112.2514
7.750000	46.596	-113.3905
7.880000	46.699	-114.4997
8.000000	46.786	-115.4988
8.120000	46.868	-116.4755
8.250000	46.949	-117.5071
8.380000	47.023	-118.5135
8.500000	47.088	-119.4215
8.620000	47.149	-120.3083
8.750000	47.210	-121.2472
8.850000	47.255	-121.9553
9.000000	47.318	-122.9927
9.120000	47.366	-123.8032
9.250000	47.414	-124.6631
9.380000	47.461	-125.5034
9.500000	47.501	-126.2630
9.620000	47.539	-127.0080
9.750000	47.579	-127.7980
9.880000	47.616	-128.5717
10.000000	47.649	-129.2716
10.150000	47.688	-130.1271
10.300000	47.725	-130.9627
10.440000	47.757	-131.7243
10.600000	47.792	-132.5743
10.750000	47.823	-133.3520
10.900000	47.851	-134.1112
11.060000	47.880	-134.9022
11.200000	47.904	-135.5779
11.380000	47.933	-136.4261
11.500000	47.951	-136.9787
11.720000	47.982	-137.9664
11.800000	47.993	-138.3177
12.060000	48.026	-139.4312
12.200000	48.042	-140.0139
12.410000	48.064	-140.8659
12.500000	48.073	-141.2236
12.650000	48.087	-141.8093
12.800000	48.101	-142.3828
13.150000	48.128	-143.6749
13.200000	48.132	-143.8544
13.400000	48.145	-144.5597
13.600000	48.157	-145.2455
13.800000	48.168	-145.9122
14.000000	48.177	-146.5606
14.300000	48.190	-147.4993
14.500000	48.196	-148.1035
14.750000	48.203	-148.8355
15.000000	48.209	-149.5421
15.250000	48.213	-150.2245
15.500000	48.216	-150.8837
15.750000	48.218	-151.5203
16.000000	48.219	-152.1354
16.250000	48.219	-152.7300
16.500000	48.218	-153.3049
16.750000	48.216	-153.8610
17.000000	48.214	-154.3995
17.250000	48.211	-154.9212
17.500000	48.207	-155.4270
17.750000	48.203	-155.9181
18.000000	48.199	-156.3952
18.250000	48.194	-156.8591
18.500000	48.189	-157.3107
18.750000	48.183	-157.7506
19.000000	48.177	-158.1793
19.250000	48.171	-158.5974
19.500000	48.164	-159.0054
19.750000	48.157	-159.4034
20.000000	48.150	-159.7919
20.299999	48.141	-160.2457
20.600000	48.132	-160.6864
20.900000	48.122	-161.1142
21.200001	48.112	-161.5296
21.400000	48.105	-161.7997
21.799999	48.092	-162.3238
22.000000	48.085	-162.5781
22.400000	48.071	-163.0715
22.700001	48.060	-163.4285
23.000000	48.050	-163.7747
23.299999	48.039	-164.1104
23.600000	48.028	-164.4358
24.000000	48.014	-164.8542
24.299999	48.004	-165.1566
24.700001	47.990	-165.5453
25.000000	47.979	-165.8262
25.400000	47.965	-166.1873
25.799999	47.952	-166.5335
26.200001	47.938	-166.8658
26.500000	47.928	-167.1063
26.900000	47.915	-167.4160
27.200001	47.905	-167.6406
27.600000	47.892	-167.9302
28.000000	47.880	-168.2093
28.500000	47.864	-168.5443
29.000000	47.849	-168.8649
29.500000	47.833	-169.1720
30.000000	47.818	-169.4664
30.400000	47.807	-169.6932
30.700001	47.798	-169.8585
31.100000	47.786	-170.0727
31.500000	47.775	-170.2802
32.000000	47.761	-170.5303
32.500000	47.747	-170.7708
33.000000	47.734	-171.0020
33.500000	47.720	-171.2244
34.000000	47.707	-171.4384
34.500000	47.695	-171.6444
35.000000	47.682	-171.8427
35.500000	47.670	-172.0337
36.000000	47.658	-172.2178
36.500000	47.646	-172.3954
37.000000	47.634	-172.5669
37.500000	47.623	-172.7325
38.200001	47.607	-172.9553
38.700001	47.596	-173.1081
39.500000	47.579	-173.3427
40.000000	47.568	-173.4834
40.599998	47.556	-173.6464
41.200001	47.543	-173.8034
41.799999	47.532	-173.9545
42.500000	47.518	-174.1238
43.099998	47.506	-174.2631
43.700001	47.495	-174.3972
44.400002	47.483	-174.5474
45.000000	47.472	-174.6710
45.500000	47.463	-174.7706
46.200001	47.452	-174.9049
46.799999	47.442	-175.0157
47.500000	47.431	-175.1401
48.200001	47.420	-175.2596
48.700001	47.413	-175.3423
49.400002	47.402	-175.4544
50.000000	47.394	-175.5475
50.799999	47.383	-175.6675
51.500000	47.374	-175.7690
52.200001	47.366	-175.8675
53.000000	47.356	-175.9765
53.799999	47.347	-176.0819
54.500000	47.340	-176.1712
55.200001	47.332	-176.2578
56.000000	47.324	-176.3536
57.000000	47.315	-176.4687
58.000000	47.305	-176.5787
59.000000	47.297	-176.6838
60.000000	47.288	-176.7842
60.799999	47.282	-176.8611
61.500000	47.276	-176.9261
62.200001	47.271	-176.9891
63.000000	47.265	-177.0585
64.000000	47.258	-177.1419
65.000000	47.252	-177.2218
66.000000	47.245	-177.2983
67.000000	47.239	-177.3720
68.000000	47.233	-177.4430
69.000000	47.228	-177.5118
70.000000	47.223	-177.5787
71.000000	47.218	-177.6439
72.000000	47.213	-177.7076
73.000000	47.209	-177.7702
74.000000	47.205	-177.8318
75.000000	47.201	-177.8926
76.199997	47.196	-177.9644
77.500000	47.191	-178.0412
78.800003	47.187	-178.1168
80.000000	47.183	-178.1855
81.199997	47.179	-178.2533
82.500000	47.175	-178.3257
83.800003	47.171	-178.3969
85.000000	47.168	-178.4617
86.199997	47.165	-178.5256
87.500000	47.161	-178.5938
88.500000	47.158	-178.6455
90.000000	47.155	-178.7221
91.199997	47.151	-178.7824
92.500000	47.148	-178.8470
93.800003	47.145	-178.9106
95.000000	47.142	-178.9686
96.199997	47.139	-179.0259
97.500000	47.136	-179.0873
98.800003	47.133	-179.1480
100.000000	47.130	-179.2035
101.500000	47.126	-179.2722
103.000000	47.122	-179.3401
104.400002	47.118	-179.4029
106.000000	47.114	-179.4739
107.500000	47.110	-179.5399
109.000000	47.105	-179.6054
110.599998	47.101	-179.6749
112.000000	47.097	-179.7355
113.800003	47.092	-179.8134
115.000000	47.088	-179.8656
117.199997	47.082	-179.9618
118.000000	47.080	-179.9970
120.599998	47.072	179.8872
122.000000	47.068	179.8242
124.099998	47.063	179.7289
125.000000	47.060	179.6879
126.500000	47.056	179.6196
128.000000	47.052	179.5514
131.500000	47.042	179.3939
132.000000	47.041	179.3716
134.000000	47.035	179.2834
136.000000	47.029	179.1967
138.000000	47.023	179.1114
140.000000	47.016	179.0278
143.000000	47.006	178.9053
145.000000	46.999	178.8257
147.500000	46.990	178.7284
150.000000	46.981	178.6337
152.500000	46.972	178.5414
155.000000	46.962	178.4515
157.500000	46.952	178.3640
160.000000	46.941	178.2787
162.500000	46.931	178.1955
165.000000	46.920	178.1143
167.500000	46.909	178.0349
170.000000	46.897	177.9573
172.500000	46.886	177.8814
175.000000	46.874	177.8072
177.500000	46.862	177.7344
180.000000	46.849	177.6633
182.500000	46.837	177.5936
185.000000	46.824	177.5255
187.500000	46.811	177.4590
190.000000	46.798	177.3940
192.500000	46.784	177.3306
195.000000	46.771	177.2688
197.500000	46.757	177.2086
200.000000	46.743	177.1501
203.000000	46.726	177.0822
206.000000	46.708	177.0167
209.000000	46.690	176.9537
212.000000	46.672	176.8933
214.000000	46.660	176.8546
218.000000	46.635	176.7805
220.000000	46.623	176.7454
224.000000	46.597	176.6786
227.000000	46.578	176.6317
230.000000	46.558	176.5875
233.000000	46.538	176.5461
236.000000	46.518	176.5074
240.000000	46.491	176.4602
243.000000	46.470	176.4280
247.000000	46.442	176.3896
250.000000	46.421	176.3640
254.000000	46.393	176.3344
258.000000	46.364	176.3099
262.000000	46.336	176.2906
265.000000	46.314	176.2795
269.000000	46.285	176.2693
272.000000	46.263	176.2650
276.000000	46.233	176.2639
280.000000	46.204	176.2681
285.000000	46.167	176.2805
290.000000	46.130	176.3011
295.000000	46.093	176.3297
300.000000	46.055	176.3662
304.000000	46.026	176.4010
307.000000	46.003	176.4304
311.000000	45.974	176.4738
315.000000	45.944	176.5219
320.000000	45.907	176.5885
325.000000	45.871	176.6622
330.000000	45.834	176.7427
335.000000	45.798	176.8298
340.000000	45.762	176.9234
345.000000	45.726	177.0231
350.000000	45.690	177.1288
355.000000	45.655	177.2402
360.000000	45.620	177.3573
365.000000	45.585	177.4798
370.000000	45.551	177.6076
375.000000	45.517	177.7405
382.000000	45.469	177.9348
387.000000	45.436	178.0793
395.000000	45.384	178.3202
400.000000	45.351	178.4765
406.000000	45.313	178.6698
412.000000	45.276	178.8691
418.000000	45.239	179.0742
425.000000	45.196	179.3207
431.000000	45.161	179.5379
437.000000	45.125	179.7604
444.000000	45.085	-179.9734
450.000000	45.051	-179.7398
455.000000	45.023	-179.5414
462.000000	44.985	-179.2578
468.000000	44.953	-179.0095
475.000000	44.916	-178.7139
482.000000	44.880	-178.4119
487.000000	44.854	-178.1922
494.000000	44.820	-177.8793
500.000000	44.790	-177.6061
508.000000	44.752	-177.2346
515.000000	44.720	-176.9027
522.000000	44.688	-176.5645
530.000000	44.653	-176.1703
538.000000	44.620	-175.7678
545.000000	44.591	-175.4089
552.000000	44.563	-175.0438
560.000000	44.533	-174.6192
570.000000	44.498	-174.0776
580.000000	44.464	-173.5246
590.000000	44.434	-172.9608
600.000000	44.406	-172.3874
608.000000	44.386	-171.9223
615.000000	44.370	-171.5112
622.000000	44.355	-171.0968
630.000000	44.340	-170.6198
640.000000	44.325	-170.0193
650.000000	44.313	-169.4157
660.000000	44.304	-168.8108
670.000000	44.299	-168.2062
680.000000	44.297	-167.6037
690.000000	44.299	-167.0051
700.000000	44.303	-166.4120
710.000000	44.311	-165.8261
720.000000	44.321	-165.2488
730.000000	44.335	-164.6815
740.000000	44.350	-164.1253
750.000000	44.368	-163.5809
762.000000	44.391	-162.9440
775.000000	44.419	-162.2747
788.000000	44.449	-161.6267
800.000000	44.478	-161.0468
812.000000	44.508	-160.4832
825.000000	44.542	-159.8898
838.000000	44.575	-159.3122
850.000000	44.607	-158.7914
862.000000	44.638	-158.2810
875.000000	44.672	-157.7380
885.000000	44.699	-157.3264
900.000000	44.739	-156.7169
912.000000	44.771	-156.2352
925.000000	44.806	-155.7180
938.000000	44.841	-155.2048
950.000000	44.874	-154.7339
962.000000	44.908	-154.2652
975.000000	44.945	-153.7596
988.000000	44.983	-153.2560
1000.000000	45.018	-152.7927
1015.000000	45.064	-152.2157
1030.000000	45.112	-151.6411
1044.000000	45.158	-151.1071
1060.000000	45.212	-150.5001
1075.000000	45.264	-149.9347
1090.000000	45.319	-149.3733
1106.000000	45.379	-148.7797
1120.000000	45.434	-148.2652
1138.000000	45.507	-147.6116
1150.000000	45.558	-147.1813
1172.000000	45.653	-146.4050
1180.000000	45.689	-146.1271
1206.000000	45.810	-145.2416
1220.000000	45.878	-144.7768
1241.000000	45.982	-144.0966
1250.000000	46.028	-143.8117
1265.000000	46.106	-143.3459
1280.000000	46.185	-142.8921
1315.000000	46.377	-141.8820
1320.000000	46.405	-141.7435
1340.000000	46.519	-141.2047
1360.000000	46.635	-140.6910
1380.000000	46.754	-140.2031
1400.000000	46.875	-139.7422
1430.000000	47.059	-139.1030
1450.000000	47.183	-138.7131
1475.000000	47.341	-138.2678
1500.000000	47.500	-137.8705
1525.000000	47.659	-137.5228
1550.000000	47.819	-137.2257
1575.000000	47.979	-136.9804
1600.000000	48.137	-136.7877
1625.000000	48.295	-136.6482
1650.000000	48.450	-136.5623
1675.000000	48.603	-136.5303
1700.000000	48.753	-136.5518
1725.000000	48.900	-136.6266
1750.000000	49.042	-136.7540
1775.000000	49.180	-136.9327
1800.000000	49.313	-137.1615
1825.000000	49.441	-137.4386
1850.000000	49.562	-137.7620
1875.000000	49.678	-138.1294
1900.000000	49.787	-138.5381
1925.000000	49.890	-138.9854
1950.000000	49.986	-139.4678
1975.000000	50.074	-139.9823
2000.000000	50.156	-140.5250
2030.000000	50.244	-141.2084
2060.000000	50.321	-141.9207
2090.000000	50.387	-142.6550
2120.000000	50.443	-143.4045
2140.000000	50.475	-143.9092
2180.000000	50.524	-144.9222
2200.000000	50.542	-145.4266
2240.000000	50.565	-146.4224
2270.000000	50.571	-147.1512
2300.000000	50.568	-147.8589
2330.000000	50.557	-148.5408
2360.000000	50.538	-149.1928
2400.000000	50.501	-150.0096
2430.000000	50.466	-150.5790
2470.000000	50.409	-151.2764
2500.000000	50.360	-151.7509
2540.000000	50.287	-152.3166
2580.000000	50.207	-152.8047
2620.000000	50.120	-153.2149
2650.000000	50.052	-153.4719
2690.000000	49.957	-153.7484
2720.000000	49.884	-153.9075
2760.000000	49.784	-154.0572
2800.000000	49.682	-154.1389
2850.000000	49.554	-154.1504
2900.000000	49.426	-154.0684
2950.000000	49.299	-153.9005
3000.000000	49.174	-153.6544
3040.000000	49.077	-153.4065
3070.000000	49.005	-153.1932
3110.000000	48.912	-152.8754
3150.000000	48.822	-152.5228
3200.000000	48.715	-152.0382
3250.000000	48.612	-151.5113
3300.000000	48.516	-150.9481
3350.000000	48.425	-150.3547
3400.000000	48.340	-149.7365
3450.000000	48.261	-149.0988
3500.000000	48.189	-148.4465
3550.000000	48.122	-147.7840
3600.000000	48.061	-147.1156
3650.000000	48.005	-146.4450
3700.000000	47.954	-145.7757
3750.000000	47.908	-145.1105
3820.000000	47.850	-144.1912
3870.000000	47.813	-143.5458
3950.000000	47.761	-142.5372
4000.000000	47.732	-141.9235
4060.000000	47.699	-141.2049
4120.000000	47.669	-140.5060
4180.000000	47.640	-139.8266
4250.000000	47.607	-139.0573
4310.000000	47.579	-138.4161
4370.000000	47.550	-137.7898
4440.000000	47.516	-137.0750
4500.000000	47.486	-136.4732
4550.000000	47.459	-135.9775
4620.000000	47.420	-135.2894
4680.000000	47.385	-134.7025
4750.000000	47.342	-134.0178
4820.000000	47.297	-133.3301
4870.000000	47.263	-132.8354
4940.000000	47.215	-132.1359
5000.000000	47.171	-131.5285
5080.000000	47.112	-130.7057
5150.000000	47.059	-129.9722
5220.000000	47.005	-129.2255
5300.000000	46.942	-128.3554
5380.000000	46.879	-127.4677
5450.000000	46.823	-126.6769
5520.000000	46.768	-125.8736
5600.000000	46.705	-124.9412
5700.000000	46.627	-123.7558
5800.000000	46.550	-122.5508
5900.000000	46.475	-121.3285
6000.000000	46.401	-120.0909
6080.000000	46.343	-119.0908
6150.000000	46.292	-118.2088
6220.000000	46.243	-117.3202
6300.000000	46.186	-116.2965
6400.000000	46.116	-115.0033
6500.000000	46.047	-113.6926
6600.000000	45.977	-112.3610
6700.000000	45.908	-111.0040
6800.000000	45.839	-109.6171
6900.000000	45.771	-108.1959
7000.000000	45.704	-106.7368
7100.000000	45.639	-105.2381
7200.000000	45.578	-103.7005
7300.000000	45.521	-102.1278
7400.000000	45.470	-100.5270
7500.000000	45.426	-98.9084
7620.000000	45.382	-96.9600
7750.000000	45.346	-94.8675
7880.000000	45.322	-92.8201
8000.000000	45.307	-90.9874
8120.000000	45.297	-89.2184
8250.000000	45.289	-87.3758
8380.000000	45.281	-85.6053
8500.000000	45.273	-84.0271
8620.000000	45.262	-82.4930
8750.000000	45.246	-80.8690
8850.000000	45.231	-79.6386
9000.000000	45.203	-77.8107
9120.000000	45.177	-76.3544
9250.000000	45.146	-74.7755
9380.000000	45.111	-73.1912
9500.000000	45.078	-71.7226
9620.000000	45.044	-70.2482
9750.000000	45.006	-68.6453
9880.000000	44.968	-67.0375
10000.000000	44.932	-65.5492
10150.000000	44.887	-63.6825
10300.000000	44.842	-61.8070
10440.000000	44.799	-60.0466
10600.000000	44.751	-58.0208
10750.000000	44.707	-56.1068
10900.000000	44.665	-54.1783
11060.000000	44.623	-52.1074
11200.000000	44.590	-50.2875
11380.000000	44.553	-47.9466
11500.000000	44.533	-46.3929
11720.000000	44.506	-43.5801
11800.000000	44.499	-42.5744
12060.000000	44.487	-39.3947
12200.000000	44.485	-37.7490
12410.000000	44.487	-35.3779
12500.000000	44.488	-34.3986
12650.000000	44.491	-32.8155
12800.000000	44.493	-31.2923
13150.000000	44.493	-27.9604
13200.000000	44.493	-27.5088
13400.000000	44.487	-25.7608
13600.000000	44.477	-24.1048
13800.000000	44.462	-22.5389
14000.000000	44.439	-21.0608
14300.000000	44.391	-19.0008
14500.000000	44.347	-17.7250
14750.000000	44.277	-16.2290
15000.000000	44.190	-14.8310
15250.000000	44.085	-13.5208
15500.000000	43.964	-12.2926
15750.000000	43.826	-11.1460
16000.000000	43.674	-10.0861
16250.000000	43.507	-9.1212
16500.000000	43.328	-8.2613
16750.000000	43.137	-7.5154
17000.000000	42.935	-6.8904
17250.000000	42.722	-6.3914
17500.000000	42.500	-6.0213
17750.000000	42.272	-5.7816
18000.000000	42.040	-5.6708
18250.000000	41.806	-5.6833
18500.000000	41.574	-5.8075
18750.000000	41.346	-6.0252
19000.000000	41.127	-6.3119
19250.000000	40.919	-6.6385
19500.000000	40.729	-6.9741
19750.000000	40.561	-7.2892
