* Measurement data measured by REW V5.30.9
* Source: Headset (Odo By VECLAN.COM), MICROPHONE (Master Volume), L, volume: 0.250
* Format: 1M Log Swept Sine, 1 sweep at -12.0 dBFS with no timing reference
* Dated: 10 13, 24 8:03:41 PM
* REW Settings:
*  C-weighting compensation: Off
*  Target level: 75.0 dB
* Note: ; 
* Measurement: oracle 1 2024 R
* Smoothing: None
* Frequency Step: 1/48 octave
* Start Frequency: 1.000 Hz
*
* Freq(Hz)	SPL(dB)	Phase(degrees)
1.000000	73.587	-67.6197
1.015000	73.970	-68.7356
1.030000	74.345	-69.8259
1.044000	74.687	-70.8225
1.060000	75.067	-71.9392
1.075000	75.411	-72.9670
1.090000	75.742	-73.9787
1.106000	76.080	-75.0377
1.120000	76.373	-75.9215
1.138000	76.747	-76.9946
1.150000	76.993	-77.6725
1.172000	77.440	-78.8429
1.180000	77.601	-79.2466
1.206000	78.115	-80.4842
1.220000	78.387	-81.1071
1.241000	78.787	-81.9904
1.250000	78.955	-82.3518
1.265000	79.231	-82.9333
1.280000	79.501	-83.4912
1.315000	80.107	-84.7163
1.320000	80.191	-84.8840
1.340000	80.517	-85.5405
1.360000	80.830	-86.1790
1.380000	81.129	-86.8059
1.400000	81.412	-87.4274
1.430000	81.808	-88.3638
1.450000	82.051	-89.0000
1.475000	82.328	-89.8136
1.500000	82.568	-90.5994
1.525000	82.775	-91.3474
1.550000	82.950	-92.0608
1.575000	83.099	-92.7426
1.600000	83.225	-93.3961
1.625000	83.331	-94.0245
1.650000	83.423	-94.6308
1.675000	83.503	-95.2183
1.700000	83.576	-95.7901
1.725000	83.645	-96.3494
1.750000	83.715	-96.8993
1.775000	83.788	-97.4429
1.800000	83.870	-97.9835
1.825000	83.963	-98.5242
1.850000	84.066	-99.0623
1.875000	84.167	-99.5858
1.900000	84.265	-100.0951
1.925000	84.361	-100.5911
1.950000	84.454	-101.0746
1.975000	84.545	-101.5466
2.000000	84.633	-102.0080
2.030000	84.738	-102.5490
2.060000	84.839	-103.0776
2.090000	84.938	-103.5953
2.120000	85.036	-104.1038
2.140000	85.100	-104.4384
2.180000	85.226	-105.0992
2.200000	85.288	-105.4264
2.240000	85.410	-106.0661
2.270000	85.498	-106.5313
2.300000	85.584	-106.9851
2.330000	85.667	-107.4282
2.360000	85.749	-107.8617
2.400000	85.855	-108.4260
2.430000	85.932	-108.8402
2.470000	86.034	-109.3820
2.500000	86.108	-109.7817
2.540000	86.206	-110.3074
2.580000	86.303	-110.8261
2.620000	86.397	-111.3330
2.650000	86.465	-111.7049
2.690000	86.555	-112.1903
2.720000	86.620	-112.5469
2.760000	86.706	-113.0128
2.800000	86.789	-113.4684
2.850000	86.891	-114.0243
2.900000	86.990	-114.5663
2.950000	87.087	-115.0950
3.000000	87.180	-115.6068
3.040000	87.253	-116.0041
3.070000	87.306	-116.2957
3.110000	87.375	-116.6764
3.150000	87.443	-117.0488
3.200000	87.526	-117.5037
3.250000	87.608	-117.9483
3.300000	87.689	-118.3843
3.350000	87.769	-118.8081
3.400000	87.847	-119.2179
3.450000	87.923	-119.6159
3.500000	87.998	-120.0042
3.550000	88.071	-120.3848
3.600000	88.144	-120.7600
3.650000	88.216	-121.1317
3.700000	88.287	-121.4997
3.750000	88.357	-121.8596
3.820000	88.454	-122.3522
3.870000	88.522	-122.6979
3.950000	88.628	-123.2444
4.000000	88.694	-123.5838
4.060000	88.772	-123.9904
4.120000	88.848	-124.3926
4.180000	88.924	-124.7907
4.250000	89.010	-125.2512
4.310000	89.083	-125.6437
4.370000	89.154	-126.0352
4.440000	89.235	-126.4917
4.500000	89.303	-126.8818
4.550000	89.359	-127.2059
4.620000	89.435	-127.6573
4.680000	89.499	-128.0417
4.750000	89.572	-128.4866
4.820000	89.643	-128.9283
4.870000	89.693	-129.2427
4.940000	89.760	-129.6800
5.000000	89.817	-130.0511
5.080000	89.891	-130.5386
5.150000	89.954	-130.9565
5.220000	90.016	-131.3676
5.300000	90.084	-131.8296
5.380000	90.150	-132.2831
5.450000	90.207	-132.6729
5.520000	90.263	-133.0560
5.600000	90.326	-133.4846
5.700000	90.403	-134.0082
5.800000	90.478	-134.5207
5.900000	90.553	-135.0241
6.000000	90.627	-135.5149
6.080000	90.686	-135.9008
6.150000	90.737	-136.2359
6.220000	90.788	-136.5705
6.300000	90.846	-136.9513
6.400000	90.919	-137.4222
6.500000	90.991	-137.8926
6.600000	91.063	-138.3676
6.700000	91.134	-138.8466
6.800000	91.204	-139.3285
6.900000	91.273	-139.8152
7.000000	91.341	-140.3090
7.100000	91.407	-140.8106
7.200000	91.472	-141.3172
7.300000	91.534	-141.8255
7.400000	91.593	-142.3353
7.500000	91.650	-142.8491
7.620000	91.714	-143.4632
7.750000	91.778	-144.1170
7.880000	91.838	-144.7650
8.000000	91.889	-145.3479
8.120000	91.936	-145.9059
8.250000	91.983	-146.4870
8.380000	92.026	-147.0414
8.500000	92.066	-147.5257
8.620000	92.104	-147.9844
8.750000	92.144	-148.4565
8.850000	92.176	-148.8030
9.000000	92.222	-149.2922
9.120000	92.259	-149.6673
9.250000	92.302	-150.0629
9.380000	92.347	-150.4435
9.500000	92.389	-150.7935
9.620000	92.433	-151.1469
9.750000	92.481	-151.5295
9.880000	92.524	-151.9227
10.000000	92.555	-152.3034
10.150000	92.585	-152.7936
10.300000	92.608	-153.2793
10.440000	92.622	-153.7321
10.600000	92.632	-154.2337
10.750000	92.635	-154.6697
10.900000	92.633	-155.0837
11.060000	92.630	-155.5257
11.200000	92.627	-155.9173
11.380000	92.620	-156.3756
11.500000	92.613	-156.6386
11.720000	92.599	-157.0637
11.800000	92.596	-157.2016
12.060000	92.586	-157.6049
12.200000	92.584	-157.8333
12.410000	92.589	-158.1820
12.500000	92.596	-158.3316
12.650000	92.616	-158.5771
12.800000	92.638	-158.8367
13.150000	92.686	-159.5402
13.200000	92.692	-159.6475
13.400000	92.712	-160.1029
13.600000	92.724	-160.5476
13.800000	92.728	-160.9612
14.000000	92.728	-161.3502
14.300000	92.723	-161.8790
14.500000	92.721	-162.1648
14.750000	92.725	-162.4696
15.000000	92.738	-162.7391
15.250000	92.765	-163.0796
15.500000	92.799	-163.4781
15.750000	92.834	-163.9389
16.000000	92.866	-164.4802
16.250000	92.892	-165.0818
16.500000	92.909	-165.7133
16.750000	92.912	-166.3125
17.000000	92.909	-166.8672
17.250000	92.902	-167.3701
17.500000	92.895	-167.8125
17.750000	92.892	-168.2022
18.000000	92.895	-168.5697
18.250000	92.905	-168.9517
18.500000	92.917	-169.3432
18.750000	92.929	-169.7424
19.000000	92.940	-170.1476
19.250000	92.947	-170.5627
19.500000	92.952	-170.9655
19.750000	92.954	-171.3426
20.000000	92.955	-171.6981
20.299999	92.957	-172.1047
20.600000	92.959	-172.4875
20.900000	92.961	-172.8439
21.200001	92.964	-173.1984
21.400000	92.966	-173.4322
21.799999	92.970	-173.8902
22.000000	92.971	-174.1188
22.400000	92.971	-174.5928
22.700001	92.967	-174.9353
23.000000	92.961	-175.2557
23.299999	92.954	-175.5606
23.600000	92.951	-175.8479
24.000000	92.954	-176.2422
24.299999	92.961	-176.5976
24.700001	92.966	-177.1764
25.000000	92.955	-177.6600
25.400000	92.916	-178.2775
25.799999	92.856	-178.6974
26.200001	92.806	-178.8542
26.500000	92.794	-178.8634
26.900000	92.822	-178.9003
27.200001	92.866	-179.0890
27.600000	92.926	-179.6378
28.000000	92.953	179.5790
28.500000	92.923	178.6229
29.000000	92.861	178.0340
29.500000	92.822	177.7423
30.000000	92.819	177.4344
30.400000	92.819	177.0644
30.700001	92.809	176.7683
31.100000	92.785	176.4518
31.500000	92.766	176.2570
32.000000	92.774	176.0626
32.500000	92.807	175.6642
33.000000	92.821	175.0173
33.500000	92.793	174.3390
34.000000	92.741	173.8700
34.500000	92.703	173.5899
35.000000	92.688	173.3418
35.500000	92.682	173.0222
36.000000	92.674	172.6792
36.500000	92.668	172.3455
37.000000	92.668	171.9781
37.500000	92.663	171.5326
38.200001	92.631	170.9126
38.700001	92.603	170.5699
39.500000	92.576	170.0579
40.000000	92.560	169.6655
40.599998	92.530	169.1903
41.200001	92.501	168.7726
41.799999	92.480	168.3248
42.500000	92.446	167.7428
43.099998	92.409	167.3231
43.700001	92.381	166.9592
44.400002	92.348	166.5036
45.000000	92.307	166.2099
45.500000	92.282	166.1106
46.200001	92.288	165.9696
46.799999	92.304	165.5701
47.500000	92.272	164.9120
48.200001	92.191	164.4709
48.700001	92.138	164.3407
49.400002	92.093	164.2012
50.000000	92.071	163.9727
50.799999	92.044	163.5168
51.500000	92.019	162.9993
52.200001	91.976	162.4285
53.000000	91.911	161.9924
53.799999	91.894	161.7550
54.500000	91.910	161.2955
55.200001	91.889	160.5892
56.000000	91.783	159.9061
57.000000	91.582	160.1113
58.000000	91.613	161.2927
59.000000	91.784	160.2490
60.000000	91.591	158.6931
60.799999	91.452	158.8394
61.500000	91.443	158.7050
62.200001	91.401	158.1836
63.000000	91.334	157.9053
64.000000	91.319	157.4857
65.000000	91.268	156.8588
66.000000	91.193	156.5652
67.000000	91.153	156.4928
68.000000	91.120	156.1003
69.000000	91.025	155.8636
70.000000	90.989	155.8113
71.000000	90.943	155.2918
72.000000	90.870	154.9650
73.000000	90.819	154.5833
74.000000	90.748	154.2835
75.000000	90.701	154.0768
76.199997	90.638	153.7785
77.500000	90.559	153.4912
78.800003	90.493	153.2567
80.000000	90.395	152.7463
81.199997	90.312	152.7741
82.500000	90.264	152.1783
83.800003	90.152	152.0913
85.000000	90.152	151.8869
86.199997	90.062	151.1972
87.500000	89.951	151.3992
88.500000	89.936	151.1460
90.000000	89.832	151.0218
91.199997	89.813	150.5932
92.500000	89.696	150.3422
93.800003	89.663	150.3922
95.000000	89.594	149.9015
96.199997	89.468	150.1124
97.500000	89.426	150.0697
98.800003	89.361	149.9667
100.000000	89.291	149.5535
101.500000	89.332	148.7859
103.000000	88.968	147.8934
104.400002	89.021	149.2168
106.000000	88.963	148.9020
107.500000	88.896	149.0541
109.000000	88.853	148.7939
110.599998	88.621	148.1051
112.000000	88.517	148.9877
113.800003	88.556	148.5035
115.000000	88.509	148.5201
117.199997	88.405	148.4592
118.000000	88.362	148.5609
120.599998	88.263	148.6972
122.000000	88.173	148.2763
124.099998	88.064	148.3986
125.000000	88.060	148.4815
126.500000	87.983	148.0569
128.000000	87.895	148.9013
131.500000	87.774	148.9825
132.000000	87.790	148.6733
134.000000	87.708	148.4711
136.000000	87.518	147.7555
138.000000	87.392	148.9091
140.000000	87.371	149.3059
143.000000	87.270	148.9303
145.000000	87.256	148.8295
147.500000	87.196	149.1187
150.000000	87.094	149.5050
152.500000	86.996	149.6172
155.000000	86.897	149.8529
157.500000	86.850	149.8503
160.000000	86.746	149.9709
162.500000	86.708	149.9368
165.000000	86.729	149.9701
167.500000	86.546	150.6807
170.000000	86.462	151.0446
172.500000	86.358	151.1224
175.000000	86.285	151.2355
177.500000	86.202	151.4446
180.000000	86.117	151.5756
182.500000	86.049	151.6678
185.000000	85.995	152.1379
187.500000	85.939	152.5289
190.000000	85.864	152.3968
192.500000	85.840	152.6839
195.000000	85.703	152.7849
197.500000	85.625	153.7421
200.000000	85.507	154.1782
203.000000	85.326	153.8829
206.000000	85.553	153.5001
209.000000	85.311	156.2678
212.000000	85.397	153.5156
214.000000	85.388	153.1711
218.000000	84.980	154.4043
220.000000	85.189	155.5472
224.000000	85.146	154.5620
227.000000	85.125	157.3276
230.000000	85.247	157.2399
233.000000	85.487	156.3951
236.000000	85.239	156.6032
240.000000	85.260	159.1818
243.000000	85.019	162.0132
247.000000	84.937	156.1800
250.000000	84.524	157.0488
254.000000	85.021	159.2178
258.000000	84.702	159.1476
262.000000	84.794	158.8875
265.000000	84.712	159.6797
269.000000	84.582	160.5588
272.000000	84.645	160.0933
276.000000	84.484	161.0374
280.000000	84.553	161.2402
285.000000	84.398	161.3211
290.000000	84.429	161.3408
295.000000	84.338	162.3667
300.000000	84.360	162.6503
304.000000	84.372	162.6423
307.000000	84.306	163.6068
311.000000	84.248	162.7683
315.000000	84.237	162.4487
320.000000	84.160	164.2481
325.000000	84.101	164.4071
330.000000	84.048	164.7531
335.000000	84.134	165.8856
340.000000	84.154	165.7834
345.000000	84.092	167.0048
350.000000	84.097	167.0760
355.000000	84.142	167.5084
360.000000	84.076	168.2178
365.000000	83.846	167.6750
370.000000	83.966	168.0593
375.000000	83.844	167.6012
382.000000	83.819	169.3488
387.000000	83.516	168.3368
395.000000	83.768	169.2059
400.000000	83.852	169.0712
406.000000	83.722	169.9216
412.000000	83.883	170.8416
418.000000	83.738	171.0020
425.000000	83.559	171.6009
431.000000	83.693	169.4102
437.000000	83.588	171.7204
444.000000	83.913	173.2093
450.000000	83.739	173.0831
455.000000	83.786	172.7310
462.000000	83.626	172.6230
468.000000	83.557	174.1169
475.000000	83.557	173.5717
482.000000	83.551	173.5847
487.000000	83.626	173.9070
494.000000	83.608	174.1899
500.000000	83.556	175.3697
508.000000	83.459	175.6007
515.000000	83.446	175.5450
522.000000	83.471	176.3519
530.000000	83.368	176.1750
538.000000	83.437	177.1692
545.000000	83.397	177.2700
552.000000	83.414	178.1421
560.000000	83.295	178.6378
570.000000	83.433	178.8568
580.000000	83.289	179.5693
590.000000	83.318	-179.9730
600.000000	83.321	-179.5638
608.000000	83.335	-179.1769
615.000000	83.274	-178.8661
622.000000	83.260	-178.2994
630.000000	83.329	-177.3363
640.000000	83.328	-177.4021
650.000000	83.242	-176.6357
660.000000	83.238	-175.9870
670.000000	83.249	-175.4149
680.000000	83.257	-174.7844
690.000000	83.244	-174.0178
700.000000	83.228	-173.5673
710.000000	83.276	-173.3500
720.000000	83.271	-172.2620
730.000000	83.307	-171.8335
740.000000	83.308	-171.2632
750.000000	83.311	-170.7865
762.000000	83.354	-170.1332
775.000000	83.375	-169.1775
788.000000	83.413	-168.7302
800.000000	83.398	-167.8720
812.000000	83.430	-167.2783
825.000000	83.506	-165.9372
838.000000	83.564	-165.9858
850.000000	83.548	-165.3877
862.000000	83.594	-164.4804
875.000000	83.631	-163.8588
885.000000	83.700	-163.2346
900.000000	83.815	-162.1654
912.000000	83.840	-161.7795
925.000000	83.918	-161.0511
938.000000	83.987	-160.2946
950.000000	84.095	-159.8433
962.000000	84.202	-158.7289
975.000000	84.223	-158.5695
988.000000	84.263	-158.3448
1000.000000	84.396	-157.7663
1015.000000	84.523	-156.7463
1030.000000	84.622	-156.8043
1044.000000	84.767	-156.7563
1060.000000	84.855	-156.4753
1075.000000	85.022	-155.7112
1090.000000	85.194	-155.3851
1106.000000	85.235	-155.8151
1120.000000	85.315	-154.9896
1138.000000	85.413	-155.4818
1150.000000	85.514	-155.0563
1172.000000	85.575	-155.0128
1180.000000	85.748	-154.6761
1206.000000	85.823	-155.0843
1220.000000	85.931	-155.0644
1241.000000	86.061	-155.2104
1250.000000	86.070	-155.0794
1265.000000	86.094	-155.6136
1280.000000	86.170	-155.3356
1315.000000	86.303	-155.4411
1320.000000	86.341	-155.4320
1340.000000	86.407	-155.6694
1360.000000	86.454	-155.6845
1380.000000	86.510	-155.7363
1400.000000	86.571	-155.8823
1430.000000	86.799	-155.8429
1450.000000	86.697	-155.8605
1475.000000	86.723	-155.7774
1500.000000	86.788	-155.7946
1525.000000	86.825	-155.8319
1550.000000	86.806	-155.5620
1575.000000	86.947	-155.6085
1600.000000	86.963	-155.2188
1625.000000	87.007	-155.2442
1650.000000	87.036	-155.0665
1675.000000	87.098	-154.8881
1700.000000	87.129	-154.7890
1725.000000	87.147	-154.7452
1750.000000	87.218	-154.4427
1775.000000	87.263	-154.0740
1800.000000	87.279	-153.7755
1825.000000	87.352	-153.6136
1850.000000	87.387	-153.4115
1875.000000	87.418	-153.1787
1900.000000	87.487	-152.8315
1925.000000	87.529	-152.6725
1950.000000	87.589	-152.4455
1975.000000	87.612	-152.2011
2000.000000	87.671	-151.8880
2030.000000	87.735	-151.7102
2060.000000	87.798	-151.2098
2090.000000	87.903	-150.8884
2120.000000	87.975	-150.5546
2140.000000	88.024	-150.4280
2180.000000	88.146	-150.1848
2200.000000	88.197	-150.0576
2240.000000	88.299	-149.7992
2270.000000	88.369	-149.6432
2300.000000	88.449	-149.5612
2330.000000	88.505	-149.3164
2360.000000	88.585	-149.0431
2400.000000	88.642	-148.5894
2430.000000	88.731	-148.2932
2470.000000	88.850	-148.0258
2500.000000	88.947	-147.6722
2540.000000	89.087	-147.3297
2580.000000	89.231	-146.9960
2620.000000	89.377	-146.7126
2650.000000	89.499	-146.6173
2690.000000	89.694	-146.3195
2720.000000	89.863	-146.2537
2760.000000	90.084	-146.4411
2800.000000	90.310	-146.8260
2850.000000	90.554	-147.7720
2900.000000	90.739	-148.8568
2950.000000	90.883	-150.0447
3000.000000	91.012	-151.2235
3040.000000	91.100	-152.1649
3070.000000	91.152	-152.8618
3110.000000	91.209	-153.8553
3150.000000	91.261	-154.8588
3200.000000	91.283	-156.1379
3250.000000	91.295	-157.4670
3300.000000	91.277	-158.8373
3350.000000	91.238	-160.2583
3400.000000	91.168	-161.6938
3450.000000	91.062	-163.1573
3500.000000	90.922	-164.5726
3550.000000	90.740	-165.8715
3600.000000	90.510	-167.0021
3650.000000	90.253	-167.8738
3700.000000	89.984	-168.3311
3750.000000	89.702	-168.4127
3820.000000	89.367	-167.9530
3870.000000	89.176	-167.4719
3950.000000	88.939	-166.4460
4000.000000	88.822	-165.8631
4060.000000	88.731	-165.2459
4120.000000	88.660	-164.7196
4180.000000	88.596	-164.3208
4250.000000	88.540	-163.8026
4310.000000	88.491	-163.4406
4370.000000	88.453	-163.0836
4440.000000	88.417	-162.7038
4500.000000	88.401	-162.3821
4550.000000	88.395	-162.0656
4620.000000	88.393	-161.7065
4680.000000	88.419	-161.4538
4750.000000	88.469	-161.1901
4820.000000	88.533	-161.0193
4870.000000	88.599	-161.0286
4940.000000	88.699	-161.2120
5000.000000	88.783	-161.5422
5080.000000	88.854	-162.2070
5150.000000	88.884	-163.0023
5220.000000	88.902	-163.8588
5300.000000	88.887	-164.8737
5380.000000	88.854	-165.8100
5450.000000	88.819	-166.5126
5520.000000	88.786	-167.1973
5600.000000	88.750	-167.9097
5700.000000	88.704	-168.6836
5800.000000	88.664	-169.4556
5900.000000	88.624	-170.1890
6000.000000	88.581	-170.8499
6080.000000	88.556	-171.2628
6150.000000	88.539	-171.6024
6220.000000	88.509	-171.8666
6300.000000	88.482	-172.1812
6400.000000	88.520	-172.4110
6500.000000	88.556	-172.5422
6600.000000	88.623	-172.5524
6700.000000	88.706	-172.4978
6800.000000	88.804	-172.4368
6900.000000	88.944	-172.3727
7000.000000	89.111	-172.3590
7100.000000	89.303	-172.5095
7200.000000	89.542	-172.8465
7300.000000	89.797	-173.6110
7400.000000	90.060	-174.8519
7500.000000	90.320	-176.5485
7620.000000	90.578	-179.3969
7750.000000	90.767	176.6431
7880.000000	90.783	171.8408
8000.000000	90.599	167.0745
8120.000000	90.143	162.5644
8250.000000	89.469	158.3076
8380.000000	88.664	155.0086
8500.000000	87.850	152.8515
8620.000000	87.027	151.5317
8750.000000	86.147	151.0133
8850.000000	85.510	151.0663
9000.000000	84.629	151.7607
9120.000000	84.006	152.7701
9250.000000	83.414	154.1812
9380.000000	82.913	155.7010
9500.000000	82.546	157.2578
9620.000000	82.257	158.7520
9750.000000	82.051	160.3934
9880.000000	81.939	162.0012
10000.000000	81.924	163.2495
10150.000000	82.085	164.5336
10300.000000	82.346	165.4226
10440.000000	82.688	165.9289
10600.000000	83.161	165.8912
10750.000000	83.641	165.1188
10900.000000	84.116	163.5483
11060.000000	84.541	161.1574
11200.000000	84.808	158.5612
11380.000000	84.938	154.9160
11500.000000	84.884	152.7006
11720.000000	84.480	149.6349
11800.000000	84.262	149.0189
12060.000000	83.377	149.2810
12200.000000	82.895	150.9707
12410.000000	82.174	155.0407
12500.000000	81.897	157.2466
12650.000000	81.485	161.4299
12800.000000	81.140	166.0415
13150.000000	80.659	177.7640
13200.000000	80.634	179.5368
13400.000000	80.623	-173.7907
13600.000000	80.784	-167.3892
13800.000000	81.133	-161.8612
14000.000000	81.690	-157.7606
14300.000000	83.002	-155.9310
14500.000000	84.111	-160.1563
14750.000000	85.038	-175.0027
15000.000000	84.082	164.1189
15250.000000	81.505	149.7726
15500.000000	78.797	144.4147
15750.000000	76.545	144.2814
16000.000000	74.817	147.1619
16250.000000	73.789	152.0007
16500.000000	73.156	158.6095
16750.000000	72.781	166.8037
17000.000000	72.637	176.1953
17250.000000	72.665	-173.1923
17500.000000	72.808	-161.2990
17750.000000	73.098	-148.1164
18000.000000	73.732	-133.2944
18250.000000	75.005	-119.1964
18500.000000	76.413	-110.4568
18750.000000	77.224	-103.2540
19000.000000	77.867	-94.6767
19250.000000	78.675	-85.6339
19500.000000	79.719	-78.6376
19750.000000	80.847	-75.8709
