* Measurement data measured by REW V5.30.9
* Source: Headset (Odo By VECLAN.COM), MICROPHONE (Master Volume), L, volume: 0.250
* Format: 1M Log Swept Sine, 1 sweep at -12.0 dBFS with no timing reference
* Dated: 10 13, 24 7:27:23 PM
* REW Settings:
*  C-weighting compensation: Off
*  Target level: 75.0 dB
* Note: ; 
* Measurement: pilgrim jbc L
* Smoothing: None
* Frequency Step: 1/48 octave
* Start Frequency: 1.000 Hz
*
* Freq(Hz)	SPL(dB)	Phase(degrees)
1.000000	96.680	-145.2681
1.015000	96.941	-145.7158
1.030000	97.198	-146.1676
1.044000	97.433	-146.6005
1.060000	97.696	-147.1173
1.075000	97.937	-147.6320
1.090000	98.174	-148.1845
1.106000	98.420	-148.8152
1.120000	98.632	-149.3517
1.138000	98.900	-150.0067
1.150000	99.076	-150.4226
1.172000	99.393	-151.1452
1.180000	99.506	-151.3958
1.206000	99.864	-152.1691
1.220000	100.051	-152.5615
1.241000	100.324	-153.1216
1.250000	100.438	-153.3521
1.265000	100.624	-153.7246
1.280000	100.804	-154.0839
1.315000	101.201	-154.8791
1.320000	101.255	-154.9886
1.340000	101.464	-155.4182
1.360000	101.661	-155.8374
1.380000	101.846	-156.2495
1.400000	102.018	-156.6581
1.430000	102.251	-157.2718
1.450000	102.389	-157.6866
1.475000	102.482	-158.2141
1.500000	102.487	-158.7248
1.525000	102.496	-159.2134
1.550000	102.509	-159.6818
1.575000	102.525	-160.1317
1.600000	102.543	-160.5652
1.625000	102.563	-160.9839
1.650000	102.583	-161.3898
1.675000	102.603	-161.7848
1.700000	102.623	-162.1706
1.725000	102.641	-162.5492
1.750000	102.656	-162.9224
1.775000	102.669	-163.2921
1.800000	102.677	-163.6601
1.825000	102.681	-164.0282
1.850000	102.689	-164.3950
1.875000	102.699	-164.7530
1.900000	102.708	-165.1026
1.925000	102.717	-165.4443
1.950000	102.726	-165.7788
1.975000	102.734	-166.1067
2.000000	102.742	-166.4285
2.030000	102.751	-166.8075
2.060000	102.759	-167.1796
2.090000	102.767	-167.5459
2.120000	102.774	-167.9074
2.140000	102.779	-168.1462
2.180000	102.788	-168.6200
2.200000	102.793	-168.8556
2.240000	102.801	-169.3187
2.270000	102.807	-169.6580
2.300000	102.812	-169.9910
2.330000	102.817	-170.3182
2.360000	102.822	-170.6404
2.400000	102.827	-171.0630
2.430000	102.831	-171.3756
2.470000	102.835	-171.7877
2.500000	102.838	-172.0939
2.540000	102.841	-172.4996
2.580000	102.844	-172.9034
2.620000	102.846	-173.3029
2.650000	102.848	-173.5994
2.690000	102.850	-173.9902
2.720000	102.850	-174.2799
2.760000	102.851	-174.6617
2.800000	102.851	-175.0381
2.850000	102.849	-175.5009
2.900000	102.847	-175.9549
2.950000	102.842	-176.4000
3.000000	102.836	-176.8365
3.040000	102.831	-177.1797
3.070000	102.826	-177.4334
3.110000	102.818	-177.7670
3.150000	102.811	-178.0949
3.200000	102.800	-178.4970
3.250000	102.789	-178.8902
3.300000	102.777	-179.2746
3.350000	102.765	-179.6492
3.400000	102.752	179.9858
3.450000	102.737	179.6299
3.500000	102.723	179.2823
3.550000	102.708	178.9425
3.600000	102.692	178.6097
3.650000	102.676	178.2834
3.700000	102.661	177.9639
3.750000	102.644	177.6525
3.820000	102.621	177.2295
3.870000	102.604	176.9355
3.950000	102.576	176.4774
4.000000	102.559	176.1977
4.060000	102.538	175.8683
4.120000	102.518	175.5485
4.180000	102.497	175.2373
4.250000	102.473	174.8835
4.310000	102.452	174.5865
4.370000	102.432	174.2938
4.440000	102.408	173.9575
4.500000	102.387	173.6758
4.550000	102.370	173.4454
4.620000	102.347	173.1281
4.680000	102.327	172.8601
4.750000	102.304	172.5507
4.820000	102.281	172.2447
4.870000	102.265	172.0291
4.940000	102.243	171.7310
5.000000	102.224	171.4789
5.080000	102.199	171.1472
5.150000	102.176	170.8606
5.220000	102.155	170.5782
5.300000	102.130	170.2603
5.380000	102.105	169.9470
5.450000	102.083	169.6759
5.520000	102.061	169.4073
5.600000	102.036	169.1035
5.700000	102.004	168.7290
5.800000	101.973	168.3613
5.900000	101.941	168.0010
6.000000	101.909	167.6477
6.080000	101.884	167.3701
6.150000	101.862	167.1312
6.220000	101.840	166.8962
6.300000	101.815	166.6329
6.400000	101.784	166.3110
6.500000	101.754	165.9963
6.600000	101.724	165.6874
6.700000	101.695	165.3857
6.800000	101.667	165.0906
6.900000	101.640	164.7990
7.000000	101.614	164.5086
7.100000	101.590	164.2214
7.200000	101.566	163.9362
7.300000	101.543	163.6508
7.400000	101.521	163.3644
7.500000	101.500	163.0781
7.620000	101.475	162.7333
7.750000	101.449	162.3563
7.880000	101.423	161.9748
8.000000	101.399	161.6224
8.120000	101.375	161.2729
8.250000	101.348	160.8957
8.380000	101.322	160.5218
8.500000	101.298	160.1808
8.620000	101.274	159.8429
8.750000	101.249	159.4824
8.850000	101.229	159.2102
9.000000	101.199	158.8097
9.120000	101.176	158.4951
9.250000	101.153	158.1604
9.380000	101.132	157.8323
9.500000	101.113	157.5311
9.620000	101.096	157.2305
9.750000	101.079	156.9067
9.880000	101.059	156.5766
10.000000	101.033	156.2602
10.150000	100.995	155.8558
10.300000	100.953	155.4565
10.440000	100.910	155.0869
10.600000	100.859	154.6742
10.750000	100.810	154.3097
10.900000	100.761	153.9562
11.060000	100.710	153.5557
11.200000	100.667	153.1818
11.380000	100.612	152.7197
11.500000	100.574	152.4349
11.720000	100.504	151.9420
11.800000	100.479	151.7723
12.060000	100.399	151.2451
12.200000	100.359	150.9521
12.410000	100.303	150.5114
12.500000	100.284	150.3316
12.650000	100.259	150.0459
12.800000	100.239	149.7598
13.150000	100.197	149.0520
13.200000	100.192	148.9466
13.400000	100.170	148.5085
13.600000	100.146	148.0704
13.800000	100.120	147.6445
14.000000	100.092	147.2087
14.300000	100.047	146.5422
14.500000	100.015	146.1207
14.750000	99.972	145.6309
15.000000	99.929	145.1797
15.250000	99.889	144.7099
15.500000	99.851	144.2587
15.750000	99.815	143.8306
16.000000	99.781	143.4045
16.250000	99.752	142.9644
16.500000	99.725	142.5141
16.750000	99.696	142.0767
17.000000	99.667	141.6328
17.250000	99.638	141.1830
17.500000	99.609	140.7308
17.750000	99.578	140.2907
18.000000	99.547	139.8514
18.250000	99.516	139.3969
18.500000	99.484	138.9532
18.750000	99.451	138.5222
19.000000	99.418	138.1055
19.250000	99.385	137.6829
19.500000	99.353	137.2630
19.750000	99.321	136.8490
20.000000	99.289	136.4269
20.299999	99.249	135.9083
20.600000	99.206	135.3911
20.900000	99.160	134.8969
21.200001	99.113	134.4191
21.400000	99.082	134.1137
21.799999	99.024	133.5256
22.000000	98.997	133.2277
22.400000	98.946	132.5789
22.700001	98.902	132.0605
23.000000	98.851	131.5309
23.299999	98.791	131.0126
23.600000	98.725	130.5464
24.000000	98.635	130.0291
24.299999	98.574	129.6946
24.700001	98.505	129.2671
25.000000	98.460	128.9199
25.400000	98.401	128.3891
25.799999	98.334	127.8212
26.200001	98.258	127.2612
26.500000	98.200	126.8640
26.900000	98.124	126.3699
27.200001	98.070	126.0009
27.600000	97.998	125.4904
28.000000	97.923	124.9711
28.500000	97.825	124.3456
29.000000	97.729	123.7761
29.500000	97.641	123.2008
30.000000	97.552	122.5854
30.400000	97.477	122.0797
30.700001	97.417	121.7249
31.100000	97.338	121.2946
31.500000	97.265	120.8876
32.000000	97.182	120.3609
32.500000	97.099	119.7762
33.000000	97.006	119.1946
33.500000	96.910	118.6693
34.000000	96.819	118.1904
34.500000	96.736	117.6855
35.000000	96.650	117.1515
35.500000	96.559	116.6249
36.000000	96.467	116.1343
36.500000	96.377	115.6568
37.000000	96.285	115.1933
37.500000	96.194	114.7696
38.200001	96.079	114.2388
38.700001	96.010	113.8026
39.500000	95.886	112.9553
40.000000	95.793	112.4756
40.599998	95.690	112.0092
41.200001	95.604	111.4973
41.799999	95.510	110.8636
42.500000	95.369	110.2184
43.099998	95.257	109.8831
43.700001	95.174	109.5460
44.400002	95.082	108.9806
45.000000	94.989	108.4892
45.500000	94.914	108.1268
46.200001	94.819	107.5559
46.799999	94.720	106.9770
47.500000	94.579	106.4556
48.200001	94.459	106.1493
48.700001	94.393	105.8773
49.400002	94.294	105.3155
50.000000	94.186	104.8660
50.799999	94.052	104.4654
51.500000	93.960	104.0500
52.200001	93.857	103.5325
53.000000	93.731	103.0671
53.799999	93.631	102.6230
54.500000	93.544	102.0986
55.200001	93.434	101.5848
56.000000	93.296	101.2198
57.000000	93.178	101.1430
58.000000	93.149	100.5387
59.000000	92.990	99.3481
60.000000	92.773	99.1166
60.799999	92.685	98.9485
61.500000	92.591	98.5347
62.200001	92.476	98.2560
63.000000	92.374	97.9998
64.000000	92.243	97.4464
65.000000	92.098	97.0351
66.000000	91.977	96.6676
67.000000	91.865	96.2325
68.000000	91.742	95.7635
69.000000	91.614	95.3940
70.000000	91.496	95.1032
71.000000	91.392	94.7384
72.000000	91.273	94.2905
73.000000	91.152	93.9952
74.000000	91.051	93.6572
75.000000	90.942	93.2868
76.199997	90.816	92.9042
77.500000	90.681	92.4911
78.800003	90.536	92.1198
80.000000	90.418	91.8334
81.199997	90.287	91.4342
82.500000	90.160	91.1900
83.800003	90.027	90.7413
85.000000	89.903	90.5710
86.199997	89.794	90.3124
87.500000	89.674	90.0930
88.500000	89.581	89.8032
90.000000	89.415	89.6905
91.199997	89.351	89.4454
92.500000	89.236	89.0021
93.800003	89.124	88.6315
95.000000	89.012	88.5017
96.199997	88.938	88.3928
97.500000	88.882	87.9565
98.800003	88.714	87.4258
100.000000	88.613	87.5548
101.500000	88.549	87.4460
103.000000	88.438	86.4760
104.400002	88.308	86.9751
106.000000	88.236	86.2802
107.500000	88.131	86.2614
109.000000	88.015	86.0492
110.599998	87.923	85.6714
112.000000	87.819	85.4978
113.800003	87.713	85.3937
115.000000	87.663	85.1941
117.199997	87.524	84.9152
118.000000	87.477	84.7934
120.599998	87.290	84.7365
122.000000	87.264	84.2847
124.099998	87.127	83.9769
125.000000	87.081	83.9631
126.500000	87.050	83.8412
128.000000	86.958	83.5636
131.500000	86.823	83.1753
132.000000	86.804	83.0580
134.000000	86.733	83.0273
136.000000	86.631	82.5507
138.000000	86.578	82.6017
140.000000	86.518	82.3596
143.000000	86.413	82.0096
145.000000	86.346	81.4967
147.500000	86.264	81.6596
150.000000	86.190	81.2861
152.500000	86.146	81.2937
155.000000	86.038	80.6566
157.500000	85.997	80.4935
160.000000	85.963	80.4695
162.500000	85.885	80.1469
165.000000	85.822	79.7820
167.500000	85.754	79.6487
170.000000	85.679	79.1892
172.500000	85.614	79.1496
175.000000	85.526	78.6644
177.500000	85.505	78.5371
180.000000	85.445	78.4821
182.500000	85.371	78.1421
185.000000	85.359	77.5900
187.500000	85.338	77.1613
190.000000	85.357	77.5010
192.500000	85.236	77.6623
195.000000	85.125	76.6937
197.500000	84.997	76.1930
200.000000	85.100	75.5057
203.000000	85.069	75.6085
206.000000	85.020	75.4637
209.000000	85.016	74.7341
212.000000	84.967	74.7548
214.000000	85.053	74.7766
218.000000	84.938	74.2442
220.000000	84.920	73.8426
224.000000	84.844	73.0308
227.000000	84.635	74.3488
230.000000	84.841	72.8319
233.000000	84.601	72.4072
236.000000	84.779	71.6449
240.000000	84.799	71.2265
243.000000	84.753	71.1280
247.000000	84.740	70.6043
250.000000	84.720	70.1955
254.000000	84.697	69.6096
258.000000	84.675	69.4440
262.000000	84.631	69.0866
265.000000	84.647	68.5208
269.000000	84.618	67.9852
272.000000	84.571	67.8672
276.000000	84.577	67.2639
280.000000	84.544	66.9067
285.000000	84.623	66.4420
290.000000	84.524	65.8866
295.000000	84.495	65.3325
300.000000	84.471	64.7466
304.000000	84.448	64.1757
307.000000	84.465	63.9721
311.000000	84.458	63.5778
315.000000	84.397	63.0680
320.000000	84.394	62.5085
325.000000	84.376	62.2109
330.000000	84.304	61.3963
335.000000	84.330	60.9969
340.000000	84.300	60.6078
345.000000	84.270	59.9249
350.000000	84.283	59.7413
355.000000	84.245	59.1698
360.000000	84.248	58.8856
365.000000	84.221	58.6765
370.000000	84.242	57.7739
375.000000	84.164	57.4648
382.000000	84.160	57.2099
387.000000	84.151	56.5111
395.000000	84.123	56.1990
400.000000	84.106	55.5456
406.000000	84.101	55.1642
412.000000	84.078	54.7731
418.000000	84.136	54.1040
425.000000	84.012	53.9150
431.000000	83.955	53.2678
437.000000	84.009	52.9821
444.000000	84.022	52.6365
450.000000	83.952	52.7093
455.000000	83.932	52.8427
462.000000	84.035	52.1588
468.000000	83.862	50.8896
475.000000	83.921	51.2499
482.000000	83.843	50.4468
487.000000	83.970	50.3232
494.000000	83.900	49.8069
500.000000	83.861	49.4758
508.000000	83.861	48.8793
515.000000	83.824	49.0532
522.000000	83.754	48.3537
530.000000	83.764	47.8851
538.000000	83.710	47.8770
545.000000	83.716	47.2747
552.000000	83.572	47.2870
560.000000	83.544	48.0354
570.000000	83.677	46.8871
580.000000	83.668	46.8792
590.000000	83.516	47.3517
600.000000	83.686	47.2550
608.000000	83.608	46.5034
615.000000	83.516	45.9634
622.000000	83.431	46.6307
630.000000	83.348	46.6678
640.000000	83.396	47.2647
650.000000	83.430	45.4365
660.000000	83.621	47.7933
670.000000	83.384	45.1631
680.000000	83.159	45.9174
690.000000	83.309	46.9128
700.000000	83.314	46.0737
710.000000	83.302	46.8068
720.000000	83.326	46.2691
730.000000	83.307	46.8643
740.000000	83.235	46.4242
750.000000	83.316	46.4016
762.000000	83.317	46.9669
775.000000	83.389	46.8940
788.000000	83.304	47.6671
800.000000	83.391	48.2553
812.000000	83.375	48.6532
825.000000	83.367	49.2567
838.000000	83.362	49.4424
850.000000	83.381	50.0568
862.000000	83.403	50.5026
875.000000	83.498	51.0648
885.000000	83.513	51.6414
900.000000	83.845	53.4433
912.000000	83.581	52.9570
925.000000	83.704	53.3174
938.000000	83.798	54.0754
950.000000	83.886	54.5059
962.000000	83.988	55.0946
975.000000	84.096	55.5791
988.000000	84.228	56.1504
1000.000000	84.354	56.7807
1015.000000	84.501	57.1583
1030.000000	84.691	57.6890
1044.000000	84.879	58.1498
1060.000000	85.067	58.6032
1075.000000	85.301	58.7950
1090.000000	85.514	58.7944
1106.000000	85.726	58.9881
1120.000000	85.950	58.5984
1138.000000	86.196	58.4861
1150.000000	86.356	58.3139
1172.000000	86.653	57.4314
1180.000000	86.783	57.2633
1206.000000	87.110	56.3650
1220.000000	87.281	55.6820
1241.000000	87.525	54.5200
1250.000000	87.608	54.0412
1265.000000	87.766	52.9670
1280.000000	87.888	52.2657
1315.000000	88.150	50.1402
1320.000000	88.194	49.8521
1340.000000	88.322	48.6723
1360.000000	88.416	47.5117
1380.000000	88.517	46.3620
1400.000000	88.593	45.2916
1430.000000	88.676	43.7969
1450.000000	88.738	42.8784
1475.000000	88.809	41.7779
1500.000000	88.860	40.7069
1525.000000	88.906	39.5581
1550.000000	88.949	38.7464
1575.000000	88.985	37.8744
1600.000000	89.009	37.1150
1625.000000	89.047	36.2141
1650.000000	89.095	35.5658
1675.000000	89.146	34.8767
1700.000000	89.165	34.2141
1725.000000	89.195	33.7023
1750.000000	89.253	32.8615
1775.000000	89.286	32.2962
1800.000000	89.340	31.7163
1825.000000	89.384	31.1037
1850.000000	89.437	30.5241
1875.000000	89.485	29.9506
1900.000000	89.527	29.3174
1925.000000	89.585	28.6827
1950.000000	89.631	28.0761
1975.000000	89.685	27.4137
2000.000000	89.735	26.7901
2030.000000	89.803	25.9538
2060.000000	89.863	25.1636
2090.000000	89.922	24.3447
2120.000000	89.985	23.4556
2140.000000	90.020	22.8499
2180.000000	90.080	21.6563
2200.000000	90.126	21.0930
2240.000000	90.180	19.9064
2270.000000	90.225	18.9661
2300.000000	90.262	17.9917
2330.000000	90.300	17.0653
2360.000000	90.330	16.1696
2400.000000	90.360	14.8506
2430.000000	90.374	13.9357
2470.000000	90.407	12.5511
2500.000000	90.426	11.6172
2540.000000	90.447	10.2585
2580.000000	90.483	8.8033
2620.000000	90.484	7.2202
2650.000000	90.457	5.9816
2690.000000	90.414	4.3879
2720.000000	90.370	3.2545
2760.000000	90.255	1.8126
2800.000000	90.144	0.4848
2850.000000	89.973	-0.9287
2900.000000	89.764	-1.9648
2950.000000	89.587	-2.6420
3000.000000	89.419	-3.2462
3040.000000	89.297	-3.4598
3070.000000	89.224	-3.7313
3110.000000	89.112	-3.9586
3150.000000	89.014	-4.0599
3200.000000	88.870	-4.1396
3250.000000	88.750	-4.1536
3300.000000	88.650	-4.0433
3350.000000	88.552	-3.8771
3400.000000	88.478	-3.6155
3450.000000	88.407	-3.4672
3500.000000	88.361	-3.1888
3550.000000	88.313	-2.9200
3600.000000	88.279	-2.7221
3650.000000	88.242	-2.3967
3700.000000	88.224	-2.1168
3750.000000	88.197	-1.7203
3820.000000	88.177	-1.1486
3870.000000	88.175	-0.6646
3950.000000	88.213	0.4995
4000.000000	88.269	1.3762
4060.000000	88.416	2.4908
4120.000000	88.662	3.4338
4180.000000	88.972	3.8812
4250.000000	89.357	3.6378
4310.000000	89.663	2.9489
4370.000000	89.948	1.7925
4440.000000	90.237	0.1117
4500.000000	90.452	-1.6403
4550.000000	90.605	-3.2225
4620.000000	90.753	-5.6178
4680.000000	90.828	-7.9712
4750.000000	90.847	-10.6983
4820.000000	90.783	-13.4805
4870.000000	90.690	-15.3204
4940.000000	90.494	-17.8754
5000.000000	90.271	-19.8168
5080.000000	89.872	-21.8672
5150.000000	89.491	-23.2607
5220.000000	89.085	-24.2124
5300.000000	88.614	-24.8232
5380.000000	88.145	-24.9686
5450.000000	87.758	-24.6190
5520.000000	87.387	-24.0580
5600.000000	87.008	-23.1274
5700.000000	86.585	-21.5881
5800.000000	86.238	-19.8351
5900.000000	85.953	-17.9990
6000.000000	85.726	-16.1440
6080.000000	85.592	-14.6712
6150.000000	85.486	-13.4990
6220.000000	85.396	-12.3346
6300.000000	85.300	-11.1572
6400.000000	85.259	-9.7466
6500.000000	85.239	-8.3137
6600.000000	85.217	-6.9307
6700.000000	85.227	-5.5151
6800.000000	85.270	-4.0978
6900.000000	85.341	-2.6331
7000.000000	85.458	-1.1962
7100.000000	85.627	0.0341
7200.000000	85.870	1.0582
7300.000000	86.168	1.8282
7400.000000	86.523	1.9340
7500.000000	86.905	1.4016
7620.000000	87.371	-0.3256
7750.000000	87.791	-3.8832
7880.000000	87.949	-8.8428
8000.000000	87.717	-13.4566
8120.000000	87.135	-16.8558
8250.000000	86.390	-17.5793
8380.000000	85.923	-16.0778
8500.000000	85.839	-15.0087
8620.000000	85.855	-15.6425
8750.000000	85.676	-17.7847
8850.000000	85.338	-19.1665
9000.000000	84.711	-19.9097
9120.000000	84.243	-19.2747
9250.000000	83.779	-18.2188
9380.000000	83.355	-16.8183
9500.000000	82.942	-15.3231
9620.000000	82.547	-13.2350
9750.000000	82.174	-10.4254
9880.000000	81.868	-7.2113
10000.000000	81.661	-4.0374
10150.000000	81.558	0.1769
10300.000000	81.561	4.2911
10440.000000	81.693	7.9081
10600.000000	81.877	11.4493
10750.000000	82.121	14.4129
10900.000000	82.404	17.0171
11060.000000	82.754	19.0900
11200.000000	83.108	20.2811
11380.000000	83.549	20.8552
11500.000000	83.839	20.7306
11720.000000	84.371	18.6975
11800.000000	84.496	17.2375
12060.000000	84.605	10.7617
12200.000000	84.349	6.7911
12410.000000	83.520	2.1299
12500.000000	83.066	0.8778
12650.000000	82.270	0.0181
12800.000000	81.521	0.4345
13150.000000	79.966	3.9940
13200.000000	79.766	4.8011
13400.000000	78.960	8.7283
13600.000000	78.290	14.8971
13800.000000	77.977	22.9204
14000.000000	78.141	31.7353
14300.000000	79.260	44.2994
14500.000000	80.566	51.1961
14750.000000	82.851	56.3628
15000.000000	85.795	54.7158
15250.000000	88.736	40.4719
15500.000000	89.570	16.3855
15750.000000	88.524	-0.4211
16000.000000	87.565	-10.3453
16250.000000	87.143	-19.1466
16500.000000	87.667	-29.9918
16750.000000	88.142	-62.8685
17000.000000	83.084	-99.5132
17250.000000	76.631	-108.9734
17500.000000	71.534	-106.8966
17750.000000	67.484	-102.2333
18000.000000	64.247	-97.4474
18250.000000	61.819	-93.1249
18500.000000	59.950	-89.7473
18750.000000	58.769	-85.5547
19000.000000	58.030	-80.0062
19250.000000	57.616	-72.4023
19500.000000	57.187	-62.9293
19750.000000	57.030	-50.1083
