* Measurement data measured by REW V5.30.9
* Source: Microphone (Realtek USB2.0 Audio), MICROPHONE (Master Volume), L, volume: 0.500
* Format: 512k Log Swept Sine, 1 sweep at -12.0 dBFS with no timing reference
* Dated: 02 23, 24 1:57:35 PM
* REW Settings:
*  C-weighting compensation: Off
*  Target level: 75.0 dB
* Note: ; 
* Measurement: pr3 l
* Smoothing: None
* Frequency Step: 1/48 octave
* Start Frequency: 1.000 Hz
*
* Freq(Hz)	SPL(dB)	Phase(degrees)
1.000000	51.317	-73.9645
1.015000	51.068	-74.5068
1.030000	50.792	-75.1145
1.044000	50.512	-75.7522
1.060000	50.166	-76.5445
1.075000	49.822	-77.3297
1.090000	49.460	-78.1369
1.106000	49.059	-79.0010
1.120000	48.698	-79.7425
1.138000	48.224	-80.6504
1.150000	47.904	-81.2127
1.172000	47.315	-82.1185
1.180000	47.101	-82.3985
1.206000	46.418	-83.0810
1.220000	46.060	-83.2797
1.241000	45.544	-83.3151
1.250000	45.332	-83.2229
1.265000	44.994	-82.9109
1.280000	44.676	-82.3853
1.315000	44.034	-80.2227
1.320000	43.955	-79.7966
1.340000	43.677	-77.7723
1.360000	43.451	-75.1199
1.380000	43.248	-71.6375
1.400000	43.069	-67.4183
1.430000	42.844	-59.9468
1.450000	42.725	-54.3634
1.475000	42.612	-46.8983
1.500000	42.542	-39.0926
1.525000	42.516	-31.1597
1.550000	42.536	-23.3127
1.575000	42.603	-15.7651
1.600000	42.719	-8.7302
1.625000	42.886	-2.4213
1.650000	43.105	2.9482
1.675000	43.380	7.1650
1.700000	43.724	10.1768
1.725000	44.173	12.3691
1.750000	44.712	13.8510
1.775000	45.328	14.7086
1.800000	46.005	15.0281
1.825000	46.726	14.8956
1.850000	47.478	14.3974
1.875000	48.245	13.6195
1.900000	49.012	12.6481
1.925000	49.763	11.5694
1.950000	50.483	10.4695
1.975000	51.157	9.4346
2.000000	51.770	8.5508
2.030000	52.409	7.7611
2.060000	52.988	6.8563
2.090000	53.527	5.7424
2.120000	54.032	4.4563
2.140000	54.351	3.5214
2.180000	54.955	1.5151
2.200000	55.243	0.4655
2.240000	55.798	-1.6719
2.270000	56.202	-3.2652
2.300000	56.600	-4.8092
2.330000	56.998	-6.2669
2.360000	57.401	-7.6036
2.400000	57.925	-9.3250
2.430000	58.304	-10.6163
2.470000	58.791	-12.3251
2.500000	59.145	-13.5880
2.540000	59.605	-15.2338
2.580000	60.052	-16.8211
2.620000	60.491	-18.3335
2.650000	60.816	-19.4087
2.690000	61.247	-20.7503
2.720000	61.567	-21.6974
2.760000	61.983	-22.9117
2.800000	62.390	-24.0619
2.850000	62.886	-25.3946
2.900000	63.370	-26.5931
2.950000	63.844	-27.6384
3.000000	64.312	-28.5116
3.040000	64.681	-29.0762
3.070000	64.955	-29.4399
3.110000	65.314	-29.8508
3.150000	65.667	-30.1676
3.200000	66.100	-30.4157
3.250000	66.526	-30.4805
3.300000	66.946	-30.3417
3.350000	67.360	-29.9793
3.400000	67.770	-29.3815
3.450000	68.173	-28.5659
3.500000	68.570	-27.5415
3.550000	68.961	-26.3163
3.600000	69.347	-24.8985
3.650000	69.728	-23.2959
3.700000	70.105	-21.5168
3.750000	70.478	-19.4841
3.820000	70.993	-16.1705
3.870000	71.355	-13.5802
3.950000	71.925	-9.2744
4.000000	72.276	-6.6096
4.060000	72.692	-3.5409
4.120000	73.103	-0.3884
4.180000	73.508	2.8256
4.250000	73.973	6.5012
4.310000	74.366	9.4577
4.370000	74.753	12.1151
4.440000	75.197	14.8356
4.500000	75.572	16.9383
4.550000	75.880	18.5326
4.620000	76.304	20.5280
4.680000	76.662	22.0236
4.750000	77.072	23.5054
4.820000	77.474	24.6534
4.870000	77.756	25.3012
4.940000	78.145	26.0231
5.000000	78.472	26.5192
5.080000	78.900	27.0654
5.150000	79.267	27.3527
5.220000	79.625	27.4779
5.300000	80.026	27.4834
5.380000	80.419	27.4100
5.450000	80.755	27.2752
5.520000	81.085	27.0381
5.600000	81.453	26.6861
5.700000	81.902	26.2009
5.800000	82.340	25.7018
5.900000	82.766	25.1414
6.000000	83.181	24.5637
6.080000	83.507	24.1191
6.150000	83.786	23.7382
6.220000	84.061	23.3590
6.300000	84.369	22.9273
6.400000	84.748	22.3890
6.500000	85.119	21.8605
6.600000	85.482	21.3348
6.700000	85.837	20.7927
6.800000	86.186	20.2212
6.900000	86.529	19.6288
7.000000	86.864	19.0174
7.100000	87.194	18.3879
7.200000	87.518	17.7389
7.300000	87.836	17.0722
7.400000	88.148	16.3904
7.500000	88.455	15.6864
7.620000	88.815	14.8194
7.750000	89.197	13.8925
7.880000	89.569	12.9841
8.000000	89.906	12.1621
8.120000	90.234	11.3728
8.250000	90.582	10.5513
8.380000	90.922	9.7661
8.500000	91.228	9.0773
8.620000	91.528	8.4216
8.750000	91.845	7.7450
8.850000	92.084	7.2509
9.000000	92.435	6.5472
9.120000	92.709	5.9995
9.250000	93.000	5.4212
9.380000	93.285	4.8599
9.500000	93.543	4.3566
9.620000	93.796	3.8683
9.750000	94.064	3.3504
9.880000	94.328	2.8414
10.000000	94.567	2.3807
10.150000	94.860	1.8132
10.300000	95.147	1.2537
10.440000	95.409	0.7472
10.600000	95.702	0.1917
10.750000	95.970	-0.3105
10.900000	96.232	-0.7963
11.060000	96.505	-1.2965
11.200000	96.739	-1.7205
11.380000	97.032	-2.2462
11.500000	97.222	-2.5819
11.720000	97.563	-3.1675
11.800000	97.684	-3.3734
12.060000	98.068	-4.0158
12.200000	98.268	-4.3519
12.410000	98.561	-4.8421
12.500000	98.683	-5.0419
12.650000	98.884	-5.3602
12.800000	99.081	-5.6713
13.150000	99.506	-6.3853
13.200000	99.532	-6.4896
13.400000	99.571	-6.9051
13.600000	99.557	-7.2807
13.800000	99.509	-7.6290
14.000000	99.471	-7.9666
14.300000	99.424	-8.4823
14.500000	99.395	-8.8227
14.750000	99.354	-9.2112
15.000000	99.317	-9.6193
15.250000	99.287	-10.0697
15.500000	99.261	-10.5612
15.750000	99.224	-11.0463
16.000000	99.188	-11.5581
16.250000	99.156	-12.0967
16.500000	99.126	-12.6492
16.750000	99.084	-13.1654
17.000000	99.043	-13.6732
17.250000	99.005	-14.1775
17.500000	98.970	-14.6759
17.750000	98.926	-15.1394
18.000000	98.882	-15.5921
18.250000	98.842	-16.0334
18.500000	98.803	-16.4556
18.750000	98.758	-16.8290
19.000000	98.718	-17.1783
19.250000	98.684	-17.5136
19.500000	98.656	-17.8422
19.750000	98.626	-18.1605
20.000000	98.600	-18.4995
20.299999	98.572	-18.9408
20.600000	98.540	-19.4007
20.900000	98.498	-19.8467
21.200001	98.454	-20.2823
21.400000	98.425	-20.5544
21.799999	98.360	-21.0296
22.000000	98.329	-21.2542
22.400000	98.275	-21.7078
22.700001	98.233	-22.0450
23.000000	98.188	-22.3887
23.299999	98.144	-22.7463
23.600000	98.096	-23.0825
24.000000	98.028	-23.4614
24.299999	97.984	-23.7238
24.700001	97.932	-24.0498
25.000000	97.898	-24.3130
25.400000	97.862	-24.7543
25.799999	97.816	-25.2620
26.200001	97.758	-25.8161
26.500000	97.704	-26.2149
26.900000	97.618	-26.6443
27.200001	97.554	-26.8904
27.600000	97.477	-27.1056
28.000000	97.418	-27.2475
28.500000	97.377	-27.5254
29.000000	97.338	-28.0129
29.500000	97.275	-28.6766
30.000000	97.170	-29.2312
30.400000	97.080	-29.4971
30.700001	97.022	-29.5822
31.100000	96.967	-29.6485
31.500000	96.940	-29.8187
32.000000	96.908	-30.2494
32.500000	96.850	-30.8518
33.000000	96.761	-31.3493
33.500000	96.673	-31.6868
34.000000	96.601	-31.9271
34.500000	96.547	-32.2322
35.000000	96.488	-32.5877
35.500000	96.428	-32.9809
36.000000	96.360	-33.3609
36.500000	96.288	-33.7760
37.000000	96.199	-34.1348
37.500000	96.108	-34.3792
38.200001	96.001	-34.5404
38.700001	95.947	-34.6997
39.500000	95.856	-35.1425
40.000000	95.786	-35.4005
40.599998	95.710	-35.6432
41.200001	95.647	-35.9030
41.799999	95.584	-36.2428
42.500000	95.500	-36.6413
43.099998	95.425	-36.9200
43.700001	95.355	-37.1792
44.400002	95.277	-37.4663
45.000000	95.207	-37.7033
45.500000	95.146	-37.8874
46.200001	95.064	-38.0919
46.799999	94.999	-38.2928
47.500000	94.913	-38.5820
48.200001	94.815	-38.7892
48.700001	94.755	-38.9074
49.400002	94.673	-39.2035
50.000000	94.575	-39.4619
50.799999	94.448	-39.4077
51.500000	94.411	-39.3088
52.200001	94.391	-39.6616
53.000000	94.302	-40.2126
53.799999	94.201	-40.4454
54.500000	94.134	-40.5978
55.200001	94.068	-40.8279
56.000000	93.974	-41.1284
57.000000	93.836	-41.2064
58.000000	93.768	-41.2858
59.000000	93.632	-41.8195
60.000000	93.490	-41.5339
60.799999	93.476	-41.6314
61.500000	93.412	-42.0802
62.200001	93.315	-42.2114
63.000000	93.257	-42.2858
64.000000	93.157	-42.6790
65.000000	93.053	-42.6677
66.000000	92.993	-42.8938
67.000000	92.882	-43.1125
68.000000	92.795	-43.1097
69.000000	92.717	-43.2813
70.000000	92.602	-43.3296
71.000000	92.531	-43.2093
72.000000	92.458	-43.4238
73.000000	92.361	-43.5050
74.000000	92.268	-43.9319
75.000000	92.074	-43.9414
76.199997	92.037	-43.3623
77.500000	91.984	-43.8650
78.800003	91.895	-44.2453
80.000000	91.768	-43.7540
81.199997	91.807	-44.0612
82.500000	91.553	-44.1732
83.800003	91.483	-43.8712
85.000000	91.346	-43.8653
86.199997	91.306	-44.1824
87.500000	91.151	-44.7915
88.500000	91.021	-44.2380
90.000000	91.107	-43.9854
91.199997	90.922	-43.4291
92.500000	91.051	-43.1101
93.800003	90.779	-43.0244
95.000000	90.880	-42.5816
96.199997	90.743	-43.7265
97.500000	90.601	-43.5906
98.800003	90.570	-43.3956
100.000000	90.520	-43.5380
101.500000	90.423	-44.0222
103.000000	90.166	-43.1297
104.400002	90.217	-43.1679
106.000000	90.164	-43.3431
107.500000	90.107	-43.6769
109.000000	90.094	-43.4987
110.599998	89.881	-43.4677
112.000000	89.851	-42.9518
113.800003	89.687	-43.8172
115.000000	89.844	-43.8235
117.199997	89.899	-43.0596
118.000000	89.777	-44.0542
120.599998	90.833	-43.8184
122.000000	89.468	-42.8809
124.099998	89.180	-42.2664
125.000000	89.223	-41.5882
126.500000	89.066	-42.7973
128.000000	89.020	-42.9190
131.500000	89.085	-41.8385
132.000000	89.003	-42.4469
134.000000	88.851	-41.8903
136.000000	88.792	-42.1930
138.000000	88.727	-42.2219
140.000000	88.621	-42.4620
143.000000	88.511	-41.8904
145.000000	88.465	-41.8990
147.500000	88.397	-41.6578
150.000000	88.325	-41.4397
152.500000	88.214	-41.1396
155.000000	88.136	-41.0073
157.500000	88.055	-40.8487
160.000000	87.980	-40.5402
162.500000	87.873	-40.4495
165.000000	87.789	-40.2184
167.500000	87.705	-40.0466
170.000000	87.615	-39.8487
172.500000	87.534	-39.6273
175.000000	87.444	-39.3994
177.500000	87.365	-39.2134
180.000000	87.292	-38.9845
182.500000	87.211	-38.7751
185.000000	87.135	-38.5495
187.500000	87.053	-38.3548
190.000000	86.979	-38.0801
192.500000	86.909	-37.9049
195.000000	86.841	-37.6956
197.500000	86.772	-37.4802
200.000000	86.699	-37.3066
203.000000	86.638	-37.0497
206.000000	86.576	-36.7827
209.000000	86.520	-36.5413
212.000000	86.459	-36.1914
214.000000	86.417	-36.0097
218.000000	86.337	-35.7098
220.000000	86.292	-35.5306
224.000000	86.224	-35.1908
227.000000	86.175	-34.9658
230.000000	86.120	-34.6535
233.000000	86.071	-34.4173
236.000000	86.010	-34.1795
240.000000	85.965	-33.9570
243.000000	85.910	-33.5437
247.000000	85.849	-33.1958
250.000000	85.823	-32.9843
254.000000	85.743	-32.6554
258.000000	85.684	-32.3736
262.000000	85.626	-31.9562
265.000000	85.578	-31.7436
269.000000	85.518	-31.4131
272.000000	85.482	-31.1107
276.000000	85.427	-30.7933
280.000000	85.364	-30.4973
285.000000	85.310	-30.0862
290.000000	85.243	-29.6767
295.000000	85.188	-29.2450
300.000000	85.131	-28.9000
304.000000	85.087	-28.5086
307.000000	85.045	-28.1963
311.000000	85.020	-28.0274
315.000000	84.973	-27.6903
320.000000	84.916	-27.2991
325.000000	84.881	-26.9023
330.000000	84.833	-26.5233
335.000000	84.792	-26.1193
340.000000	84.750	-25.8177
345.000000	84.723	-25.3328
350.000000	84.668	-24.9855
355.000000	84.633	-24.6521
360.000000	84.740	-23.8930
365.000000	84.575	-23.8018
370.000000	84.535	-23.4027
375.000000	84.499	-23.1658
382.000000	84.461	-22.6931
387.000000	84.435	-22.2997
395.000000	84.378	-21.7201
400.000000	84.359	-21.3973
406.000000	84.321	-20.9271
412.000000	84.299	-20.5249
418.000000	84.273	-20.0983
425.000000	84.237	-19.6593
431.000000	84.208	-19.1919
437.000000	84.181	-18.8173
444.000000	84.156	-18.3186
450.000000	84.148	-17.9923
455.000000	84.118	-17.5425
462.000000	84.106	-17.0909
468.000000	84.072	-16.6802
475.000000	84.067	-16.2566
482.000000	84.052	-15.8020
487.000000	84.034	-15.5196
494.000000	84.009	-15.0490
500.000000	84.000	-14.5654
508.000000	83.988	-14.0542
515.000000	83.965	-13.5959
522.000000	83.969	-13.1256
530.000000	83.949	-12.6000
538.000000	83.934	-12.0958
545.000000	83.932	-11.6654
552.000000	83.922	-11.1263
560.000000	83.910	-10.7042
570.000000	83.908	-10.0293
580.000000	83.902	-9.4779
590.000000	83.902	-8.6554
600.000000	83.893	-7.9953
608.000000	83.905	-7.6065
615.000000	83.904	-7.1885
622.000000	83.906	-6.6160
630.000000	83.914	-6.1327
640.000000	83.922	-5.5305
650.000000	83.922	-4.8422
660.000000	83.932	-4.1955
670.000000	83.955	-3.5365
680.000000	83.963	-2.8407
690.000000	83.991	-2.1762
700.000000	84.004	-1.4694
710.000000	84.021	-0.8115
720.000000	84.046	-0.1136
730.000000	84.071	0.5334
740.000000	84.101	1.2926
750.000000	84.128	2.0226
762.000000	84.167	2.7717
775.000000	84.213	3.7117
788.000000	84.270	4.6805
800.000000	84.332	5.4953
812.000000	84.382	6.3672
825.000000	84.449	7.2735
838.000000	84.517	8.1437
850.000000	84.588	9.0466
862.000000	84.663	9.8750
875.000000	84.740	10.7286
885.000000	84.816	11.3983
900.000000	84.918	12.3977
912.000000	85.020	13.2400
925.000000	85.124	14.1178
938.000000	85.239	14.8786
950.000000	85.342	15.6099
962.000000	85.447	16.3659
975.000000	85.563	17.0803
988.000000	85.693	17.7885
1000.000000	85.811	18.4094
1015.000000	85.957	19.1540
1030.000000	86.110	19.8577
1044.000000	86.240	20.4823
1060.000000	86.395	21.1925
1075.000000	86.537	21.7698
1090.000000	86.686	22.3819
1106.000000	86.842	23.0850
1120.000000	86.974	23.6136
1138.000000	87.155	24.3547
1150.000000	87.284	24.8303
1172.000000	87.503	25.6214
1180.000000	87.589	25.8956
1206.000000	87.856	26.7408
1220.000000	88.003	27.1935
1241.000000	88.222	27.8732
1250.000000	88.319	28.1031
1265.000000	88.489	28.6550
1280.000000	88.658	29.1284
1315.000000	89.086	30.0567
1320.000000	89.147	30.2139
1340.000000	89.390	30.6365
1360.000000	89.636	30.8309
1380.000000	89.878	30.9973
1400.000000	90.110	31.1068
1430.000000	90.418	31.2008
1450.000000	90.627	31.3292
1475.000000	90.871	31.4164
1500.000000	91.130	31.5181
1525.000000	91.378	31.5836
1550.000000	91.646	31.5720
1575.000000	91.907	31.4426
1600.000000	92.166	31.0527
1625.000000	92.405	30.4155
1650.000000	92.580	29.4662
1675.000000	92.664	28.5005
1700.000000	92.645	28.0089
1725.000000	92.611	28.3201
1750.000000	92.629	29.2777
1775.000000	92.726	30.4062
1800.000000	92.890	31.4818
1825.000000	93.087	32.4223
1850.000000	93.309	33.1920
1875.000000	93.540	33.7981
1900.000000	93.773	34.2702
1925.000000	94.008	34.6679
1950.000000	94.245	34.9863
1975.000000	94.482	35.2409
2000.000000	94.711	35.4907
2030.000000	94.997	35.6924
2060.000000	95.281	35.8573
2090.000000	95.581	35.9682
2120.000000	95.900	36.0616
2140.000000	96.122	35.9790
2180.000000	96.584	35.5465
2200.000000	96.808	35.1293
2240.000000	97.259	33.8015
2270.000000	97.550	32.3273
2300.000000	97.752	30.5582
2330.000000	97.846	28.9223
2360.000000	97.866	27.7991
2400.000000	97.902	27.2925
2430.000000	98.005	27.2710
2470.000000	98.233	27.0104
2500.000000	98.434	26.4447
2540.000000	98.683	25.2583
2580.000000	98.879	23.7118
2620.000000	99.039	22.1734
2650.000000	99.105	20.9618
2690.000000	99.174	19.4835
2720.000000	99.228	18.3011
2760.000000	99.252	17.0228
2800.000000	99.274	15.4808
2850.000000	99.247	13.8142
2900.000000	99.172	11.5508
2950.000000	99.019	9.4872
3000.000000	98.598	7.2805
3040.000000	98.112	7.2788
3070.000000	97.884	8.1701
3110.000000	97.699	9.9928
3150.000000	97.642	10.6514
3200.000000	97.491	11.6358
3250.000000	97.447	12.1315
3300.000000	97.401	13.1489
3350.000000	97.224	13.3533
3400.000000	97.100	13.3591
3450.000000	96.992	13.7426
3500.000000	96.919	14.9652
3550.000000	96.809	14.8861
3600.000000	96.658	16.4914
3650.000000	96.502	16.5060
3700.000000	96.477	16.8370
3750.000000	96.332	18.2743
3820.000000	96.261	18.2591
3870.000000	96.177	18.9001
3950.000000	95.831	18.3191
4000.000000	95.195	19.2881
4060.000000	94.939	23.2118
4120.000000	95.216	24.6405
4180.000000	95.289	26.1785
4250.000000	95.345	26.8129
4310.000000	95.381	27.4832
4370.000000	95.301	25.9191
4440.000000	95.253	25.4191
4500.000000	95.155	24.1109
4550.000000	95.013	22.5864
4620.000000	94.857	21.7041
4680.000000	94.579	19.0208
4750.000000	94.123	15.0723
4820.000000	92.808	10.4112
4870.000000	91.783	11.5479
4940.000000	90.662	17.4759
5000.000000	90.370	22.6214
5080.000000	90.243	27.4173
5150.000000	90.275	28.8009
5220.000000	90.237	27.8719
5300.000000	89.920	26.3424
5380.000000	89.382	23.7080
5450.000000	88.934	22.1731
5520.000000	88.206	22.2121
5600.000000	87.848	21.9951
5700.000000	87.257	19.1727
5800.000000	86.538	15.7966
5900.000000	85.661	13.0955
6000.000000	85.057	11.8492
6080.000000	84.621	9.7291
6150.000000	83.993	8.3181
6220.000000	83.467	8.1641
6300.000000	83.377	10.7273
6400.000000	83.878	12.4434
6500.000000	84.496	11.8223
6600.000000	85.391	10.5914
6700.000000	85.634	4.0935
6800.000000	84.837	5.6167
6900.000000	84.783	17.2287
7000.000000	85.879	26.9110
7100.000000	87.665	33.6459
7200.000000	89.612	38.8736
7300.000000	91.658	41.0126
7400.000000	93.542	42.8906
7500.000000	95.637	40.2778
7620.000000	97.895	36.9885
7750.000000	99.751	28.9124
7880.000000	101.235	18.1787
8000.000000	102.198	10.0861
8120.000000	102.127	1.5141
8250.000000	101.671	-4.5004
8380.000000	101.213	-7.3866
8500.000000	100.976	-9.5722
8620.000000	100.350	-9.6986
8750.000000	100.035	-8.8465
8850.000000	99.611	-6.8861
9000.000000	99.473	-3.4791
9120.000000	99.626	-0.4481
9250.000000	99.661	0.1622
9380.000000	99.578	0.6257
9500.000000	99.437	-0.3320
9620.000000	98.912	0.4479
9750.000000	98.469	1.1601
9880.000000	98.065	2.3244
10000.000000	97.802	4.1345
10150.000000	97.191	5.4037
10300.000000	96.313	5.8824
10440.000000	95.648	8.1734
10600.000000	94.414	9.7567
10750.000000	93.010	11.4105
10900.000000	91.634	16.5228
11060.000000	89.680	21.6137
11200.000000	88.086	30.2661
11380.000000	86.195	44.8319
11500.000000	85.025	52.1630
11720.000000	82.412	73.7281
11800.000000	81.712	85.3858
12060.000000	81.557	117.0025
12200.000000	81.451	129.9569
12410.000000	81.390	146.6365
12500.000000	81.199	153.0965
12650.000000	80.485	162.4791
12800.000000	79.114	173.1349
13150.000000	74.637	-122.1898
13200.000000	75.060	-106.6380
13400.000000	79.622	-65.7200
13600.000000	84.135	-48.7637
13800.000000	87.617	-41.2797
14000.000000	89.750	-37.1959
14300.000000	92.064	-32.6692
14500.000000	92.921	-26.6266
14750.000000	94.306	-19.0138
15000.000000	95.655	-11.9359
15250.000000	96.825	-6.9128
15500.000000	97.649	-5.2487
15750.000000	97.739	-3.8983
16000.000000	97.408	-1.4043
16250.000000	97.539	3.6434
16500.000000	97.215	7.9531
16750.000000	96.909	13.5647
17000.000000	96.309	17.3975
17250.000000	95.243	21.8312
17500.000000	93.308	27.2246
17750.000000	90.742	35.7379
18000.000000	87.304	54.9833
18250.000000	84.158	91.0270
18500.000000	84.932	137.5963
18750.000000	87.865	164.8868
19000.000000	89.958	-179.4551
19250.000000	91.424	-165.3322
19500.000000	92.807	-153.4254
19750.000000	93.547	-142.3934
