* Measurement data measured by REW V5.30.9
* Source: Headset (Odo By VECLAN.COM), MICROPHONE (Master Volume), L, volume: 0.300
* Format: 512k Log Swept Sine, 1 sweep at -12.0 dBFS with no timing reference
* Dated: 09 7, 24 7:14:36 PM
* REW Settings:
*  C-weighting compensation: Off
*  Target level: 75.0 dB
* Note: ; 
* Measurement: pr3 L
* Smoothing: None
* Frequency Step: 1/48 octave
* Start Frequency: 1.000 Hz
*
* Freq(Hz)	SPL(dB)	Phase(degrees)
1.000000	77.983	-84.5262
1.015000	78.285	-85.1409
1.030000	78.582	-85.7509
1.044000	78.854	-86.3198
1.060000	79.159	-86.9740
1.075000	79.438	-87.5955
1.090000	79.711	-88.2294
1.106000	79.994	-88.9185
1.120000	80.240	-89.5041
1.138000	80.555	-90.2262
1.150000	80.764	-90.6893
1.172000	81.143	-91.5028
1.180000	81.279	-91.7879
1.206000	81.717	-92.6780
1.220000	81.949	-93.1360
1.241000	82.291	-93.7976
1.250000	82.435	-94.0727
1.265000	82.671	-94.5209
1.280000	82.903	-94.9573
1.315000	83.423	-95.9371
1.320000	83.494	-96.0733
1.340000	83.774	-96.6111
1.360000	84.042	-97.1394
1.380000	84.298	-97.6613
1.400000	84.540	-98.1799
1.430000	84.875	-98.9582
1.450000	85.080	-99.4818
1.475000	85.311	-100.1438
1.500000	85.510	-100.7905
1.525000	85.677	-101.4170
1.550000	85.817	-102.0251
1.575000	85.933	-102.6166
1.600000	86.029	-103.1931
1.625000	86.108	-103.7565
1.650000	86.174	-104.3084
1.675000	86.231	-104.8506
1.700000	86.282	-105.3848
1.725000	86.330	-105.9128
1.750000	86.379	-106.4362
1.775000	86.434	-106.9569
1.800000	86.497	-107.4766
1.825000	86.572	-107.9970
1.850000	86.657	-108.5166
1.875000	86.741	-109.0288
1.900000	86.825	-109.5339
1.925000	86.907	-110.0323
1.950000	86.989	-110.5245
1.975000	87.069	-111.0111
2.000000	87.148	-111.4924
2.030000	87.242	-112.0639
2.060000	87.335	-112.6295
2.090000	87.426	-113.1902
2.120000	87.515	-113.7467
2.140000	87.575	-114.1158
2.180000	87.691	-114.8506
2.200000	87.748	-115.2169
2.240000	87.861	-115.9427
2.270000	87.944	-116.4802
2.300000	88.025	-117.0124
2.330000	88.105	-117.5397
2.360000	88.184	-118.0625
2.400000	88.286	-118.7537
2.430000	88.362	-119.2681
2.470000	88.461	-119.9498
2.500000	88.534	-120.4584
2.540000	88.629	-121.1340
2.580000	88.722	-121.8074
2.620000	88.813	-122.4776
2.650000	88.880	-122.9776
2.690000	88.967	-123.6405
2.720000	89.031	-124.1345
2.760000	89.115	-124.7888
2.800000	89.196	-125.4377
2.850000	89.294	-126.2405
2.900000	89.389	-127.0334
2.950000	89.480	-127.8158
3.000000	89.567	-128.5900
3.040000	89.634	-129.2032
3.070000	89.683	-129.6594
3.110000	89.746	-130.2623
3.150000	89.807	-130.8586
3.200000	89.880	-131.5942
3.250000	89.951	-132.3182
3.300000	90.020	-133.0298
3.350000	90.085	-133.7298
3.400000	90.148	-134.4187
3.450000	90.208	-135.0965
3.500000	90.265	-135.7630
3.550000	90.319	-136.4181
3.600000	90.372	-137.0615
3.650000	90.423	-137.6931
3.700000	90.472	-138.3129
3.750000	90.518	-138.9211
3.820000	90.579	-139.7529
3.870000	90.621	-140.3332
3.950000	90.684	-141.2376
4.000000	90.722	-141.7879
4.060000	90.766	-142.4327
4.120000	90.808	-143.0595
4.180000	90.847	-143.6690
4.250000	90.891	-144.3599
4.310000	90.927	-144.9363
4.370000	90.963	-145.4992
4.440000	91.003	-146.1387
4.500000	91.037	-146.6690
4.550000	91.063	-147.0995
4.620000	91.100	-147.6873
4.680000	91.131	-148.1798
4.750000	91.167	-148.7440
4.820000	91.203	-149.2958
4.870000	91.228	-149.6796
4.940000	91.264	-150.2053
5.000000	91.294	-150.6476
5.080000	91.333	-151.2299
5.150000	91.368	-151.7356
5.220000	91.403	-152.2326
5.300000	91.443	-152.7908
5.380000	91.482	-153.3437
5.450000	91.516	-153.8272
5.520000	91.549	-154.3138
5.600000	91.586	-154.8698
5.700000	91.632	-155.5639
5.800000	91.675	-156.2586
5.900000	91.714	-156.9561
6.000000	91.751	-157.6586
6.080000	91.779	-158.2211
6.150000	91.801	-158.7111
6.220000	91.821	-159.1968
6.300000	91.841	-159.7491
6.400000	91.862	-160.4375
6.500000	91.880	-161.1153
6.600000	91.893	-161.7735
6.700000	91.903	-162.4144
6.800000	91.908	-163.0392
6.900000	91.911	-163.6419
7.000000	91.912	-164.2171
7.100000	91.910	-164.7667
7.200000	91.906	-165.2920
7.300000	91.902	-165.7933
7.400000	91.899	-166.2686
7.500000	91.894	-166.7166
7.620000	91.889	-167.2290
7.750000	91.887	-167.7648
7.880000	91.887	-168.2725
8.000000	91.888	-168.7287
8.120000	91.891	-169.1853
8.250000	91.897	-169.6723
8.380000	91.903	-170.1624
8.500000	91.909	-170.6279
8.620000	91.916	-171.1023
8.750000	91.922	-171.6228
8.850000	91.924	-172.0275
9.000000	91.924	-172.6452
9.120000	91.922	-173.1360
9.250000	91.916	-173.6564
9.380000	91.907	-174.1698
9.500000	91.897	-174.6274
9.620000	91.886	-175.0630
9.750000	91.873	-175.5144
9.880000	91.854	-175.9476
10.000000	91.831	-176.3322
10.150000	91.795	-176.7914
10.300000	91.759	-177.2259
10.440000	91.725	-177.6049
10.600000	91.687	-178.0227
10.750000	91.655	-178.4010
10.900000	91.625	-178.7753
11.060000	91.598	-179.2286
11.200000	91.577	-179.6732
11.380000	91.549	179.7411
11.500000	91.527	179.3494
11.720000	91.480	178.6302
11.800000	91.461	178.3727
12.060000	91.390	177.5476
12.200000	91.348	177.1100
12.410000	91.283	176.4765
12.500000	91.259	176.2332
12.650000	91.223	175.8646
12.800000	91.189	175.5269
13.150000	91.120	174.8329
13.200000	91.112	174.7411
13.400000	91.082	174.3913
13.600000	91.058	174.0663
13.800000	91.038	173.7716
14.000000	91.025	173.4545
14.300000	91.015	172.9230
14.500000	91.012	172.5359
14.750000	91.006	172.0152
15.000000	90.996	171.4493
15.250000	90.980	170.7967
15.500000	90.950	170.1386
15.750000	90.906	169.5129
16.000000	90.850	168.9541
16.250000	90.791	168.4806
16.500000	90.732	168.1027
16.750000	90.679	167.8407
17.000000	90.639	167.6201
17.250000	90.612	167.4021
17.500000	90.597	167.1385
17.750000	90.585	166.8081
18.000000	90.570	166.4060
18.250000	90.548	165.9254
18.500000	90.514	165.4434
18.750000	90.470	164.9927
19.000000	90.418	164.6031
19.250000	90.365	164.2693
19.500000	90.316	163.9825
19.750000	90.272	163.7316
20.000000	90.234	163.4700
20.299999	90.190	163.1267
20.600000	90.144	162.7686
20.900000	90.092	162.4398
21.200001	90.038	162.1669
21.400000	90.007	162.0276
21.799999	89.962	161.8095
22.000000	89.951	161.6882
22.400000	89.947	161.3004
22.700001	89.946	160.8559
23.000000	89.932	160.2935
23.299999	89.898	159.6752
23.600000	89.843	159.0898
24.000000	89.749	158.4552
24.299999	89.677	158.0962
24.700001	89.590	157.7248
25.000000	89.530	157.4773
25.400000	89.453	157.1546
25.799999	89.374	156.8987
26.200001	89.302	156.7514
26.500000	89.263	156.6857
26.900000	89.237	156.5654
27.200001	89.230	156.3585
27.600000	89.217	155.8808
28.000000	89.174	155.2731
28.500000	89.076	154.6195
29.000000	88.971	154.3128
29.500000	88.906	154.1857
30.000000	88.878	153.9023
30.400000	88.851	153.4856
30.700001	88.814	153.1375
31.100000	88.746	152.7530
31.500000	88.673	152.5208
32.000000	88.602	152.3891
32.500000	88.554	152.2418
33.000000	88.511	152.0008
33.500000	88.458	151.7226
34.000000	88.399	151.4731
34.500000	88.338	151.2337
35.000000	88.273	151.0199
35.500000	88.210	150.8548
36.000000	88.159	150.6917
36.500000	88.117	150.3989
37.000000	88.055	149.9662
37.500000	87.958	149.5923
38.200001	87.821	149.5640
38.700001	87.790	149.7023
39.500000	87.814	149.1287
40.000000	87.771	148.2785
40.599998	87.621	147.4557
41.200001	87.450	147.3791
41.799999	87.360	147.7255
42.500000	87.349	147.7935
43.099998	87.329	147.3852
43.700001	87.257	146.8382
44.400002	87.107	146.3891
45.000000	86.952	146.4510
45.500000	86.855	146.8563
46.200001	86.827	147.4307
46.799999	86.849	147.3226
47.500000	86.802	146.7337
48.200001	86.703	146.4133
48.700001	86.653	146.2776
49.400002	86.578	145.8528
50.000000	86.466	145.6569
50.799999	86.382	146.0728
51.500000	86.423	145.9660
52.200001	86.385	145.1634
53.000000	86.234	144.8995
53.799999	86.193	144.9844
54.500000	86.146	144.2895
55.200001	85.967	143.7791
56.000000	85.795	144.2586
57.000000	85.786	144.2719
58.000000	85.641	143.2575
59.000000	85.469	143.4915
60.000000	85.511	142.7792
60.799999	85.281	141.4066
61.500000	84.964	142.4424
62.200001	85.048	144.7201
63.000000	85.424	144.0533
64.000000	85.151	140.7082
65.000000	84.558	143.1023
66.000000	84.822	146.2120
67.000000	85.060	144.8143
68.000000	84.882	143.4659
69.000000	84.723	143.3066
70.000000	84.597	142.8651
71.000000	84.417	143.2338
72.000000	84.481	144.1209
73.000000	84.548	143.6592
74.000000	84.520	144.0995
75.000000	84.666	143.8915
76.199997	84.460	142.8292
77.500000	84.292	143.6729
78.800003	84.001	143.9256
80.000000	84.025	145.4026
81.199997	84.059	143.8161
82.500000	83.855	143.4486
83.800003	83.858	143.3567
85.000000	83.832	143.0430
86.199997	83.718	143.1251
87.500000	83.651	144.1398
88.500000	83.618	144.3012
90.000000	83.504	144.6050
91.199997	83.324	143.7998
92.500000	83.107	144.9320
93.800003	83.189	144.4612
95.000000	83.102	144.1067
96.199997	83.048	144.0740
97.500000	83.081	144.7878
98.800003	83.077	143.9181
100.000000	82.839	144.3979
101.500000	82.809	144.8903
103.000000	82.599	145.3829
104.400002	82.654	145.2314
106.000000	82.572	144.8792
107.500000	82.501	145.0530
109.000000	82.514	144.9351
110.599998	82.433	145.1273
112.000000	82.285	145.0364
113.800003	82.171	146.0647
115.000000	82.302	145.7319
117.199997	82.103	145.5337
118.000000	82.014	145.5370
120.599998	82.138	145.4526
122.000000	81.838	146.4698
124.099998	81.816	146.5756
125.000000	81.807	145.9154
126.500000	81.690	146.4843
128.000000	81.654	145.8911
131.500000	81.560	147.5154
132.000000	81.552	147.4343
134.000000	81.437	147.9395
136.000000	81.364	147.1630
138.000000	81.386	147.2888
140.000000	81.237	147.7610
143.000000	81.113	148.3678
145.000000	81.067	148.7188
147.500000	81.024	148.8677
150.000000	80.961	149.0357
152.500000	80.882	149.7099
155.000000	80.784	149.6887
157.500000	80.759	150.1909
160.000000	80.673	150.4556
162.500000	80.607	150.7341
165.000000	80.515	151.1231
167.500000	80.420	151.3963
170.000000	80.385	151.6869
172.500000	80.296	151.7860
175.000000	80.242	152.1573
177.500000	80.162	152.3754
180.000000	80.138	152.7318
182.500000	80.078	153.0250
185.000000	80.007	153.2146
187.500000	79.936	153.4127
190.000000	79.856	153.3891
192.500000	79.798	154.0378
195.000000	79.752	154.0475
197.500000	79.678	154.4248
200.000000	79.627	155.0733
203.000000	79.594	155.1325
206.000000	79.593	155.6274
209.000000	79.540	156.0222
212.000000	79.414	155.8978
214.000000	79.386	156.4300
218.000000	79.393	156.9924
220.000000	79.352	157.3073
224.000000	79.242	157.4089
227.000000	79.230	157.7330
230.000000	79.190	158.0186
233.000000	79.120	158.6316
236.000000	79.127	159.2090
240.000000	79.145	159.4310
243.000000	79.090	159.8154
247.000000	78.985	160.1871
250.000000	78.996	160.4605
254.000000	78.969	160.7211
258.000000	78.855	161.0107
262.000000	78.833	161.3828
265.000000	78.843	161.8036
269.000000	78.757	162.1859
272.000000	78.699	162.4589
276.000000	78.670	162.6443
280.000000	78.653	163.0102
285.000000	78.636	163.6543
290.000000	78.602	164.1812
295.000000	78.567	164.7574
300.000000	78.490	165.1202
304.000000	78.413	165.5492
307.000000	78.415	165.6821
311.000000	78.410	165.8507
315.000000	78.384	166.3728
320.000000	78.346	166.9459
325.000000	78.333	167.4712
330.000000	78.289	167.5491
335.000000	78.231	168.1659
340.000000	78.216	168.5013
345.000000	78.253	169.1326
350.000000	78.122	169.5579
355.000000	78.147	169.8022
360.000000	78.153	170.2946
365.000000	78.093	170.9284
370.000000	78.062	171.2911
375.000000	78.033	171.6006
382.000000	78.025	172.1939
387.000000	77.992	172.5691
395.000000	77.972	173.2412
400.000000	77.965	173.5479
406.000000	77.946	173.9743
412.000000	77.926	174.4765
418.000000	77.887	175.1559
425.000000	77.872	175.5591
431.000000	77.857	176.0555
437.000000	77.830	176.3892
444.000000	77.826	176.9840
450.000000	77.805	177.4522
455.000000	77.777	177.7348
462.000000	77.771	178.3436
468.000000	77.757	178.7123
475.000000	77.751	179.2656
482.000000	77.724	179.6884
487.000000	77.736	-179.8509
494.000000	77.700	-179.3393
500.000000	77.697	-178.9766
508.000000	77.705	-178.2429
515.000000	77.675	-177.8889
522.000000	77.684	-177.2984
530.000000	77.659	-176.7528
538.000000	77.692	-175.9271
545.000000	77.686	-175.7946
552.000000	77.646	-175.3010
560.000000	77.657	-174.5924
570.000000	77.637	-174.0594
580.000000	77.644	-173.3371
590.000000	77.644	-172.7016
600.000000	77.653	-171.9561
608.000000	77.658	-171.3497
615.000000	77.651	-170.9167
622.000000	77.644	-170.4425
630.000000	77.660	-169.8599
640.000000	77.659	-169.1792
650.000000	77.663	-168.5683
660.000000	77.663	-167.9233
670.000000	77.689	-167.1257
680.000000	77.708	-166.3146
690.000000	77.716	-165.7607
700.000000	77.750	-165.1902
710.000000	77.768	-164.4057
720.000000	77.770	-163.7127
730.000000	77.797	-162.9786
740.000000	77.824	-162.3159
750.000000	77.838	-161.6433
762.000000	77.886	-160.7838
775.000000	77.928	-159.9404
788.000000	77.971	-159.0216
800.000000	78.013	-158.2109
812.000000	78.067	-157.4260
825.000000	78.122	-156.5773
838.000000	78.175	-155.8412
850.000000	78.231	-154.8822
862.000000	78.277	-154.0840
875.000000	78.360	-153.2698
885.000000	78.406	-152.6717
900.000000	78.495	-151.6568
912.000000	78.575	-150.9716
925.000000	78.639	-150.2381
938.000000	78.747	-149.4406
950.000000	78.836	-148.8114
962.000000	78.928	-148.1686
975.000000	79.032	-147.5009
988.000000	79.130	-146.9033
1000.000000	79.225	-146.2785
1015.000000	79.352	-145.6992
1030.000000	79.475	-145.0615
1044.000000	79.593	-144.5873
1060.000000	79.725	-144.0152
1075.000000	79.844	-143.6283
1090.000000	79.962	-143.1720
1106.000000	80.075	-142.7547
1120.000000	80.197	-142.4276
1138.000000	80.301	-142.0487
1150.000000	80.378	-141.7017
1172.000000	80.522	-141.1379
1180.000000	80.585	-140.8822
1206.000000	80.763	-140.1861
1220.000000	80.873	-139.7622
1241.000000	81.014	-139.2020
1250.000000	81.080	-139.0154
1265.000000	81.199	-138.6984
1280.000000	81.312	-138.4297
1315.000000	81.574	-137.7157
1320.000000	81.615	-137.5718
1340.000000	81.753	-137.2552
1360.000000	81.904	-136.8883
1380.000000	82.059	-136.5058
1400.000000	82.212	-136.1428
1430.000000	82.443	-135.5601
1450.000000	82.612	-135.3059
1475.000000	82.838	-134.9659
1500.000000	83.060	-134.8498
1525.000000	83.274	-134.8024
1550.000000	83.497	-134.8542
1575.000000	83.710	-135.0400
1600.000000	83.927	-135.2870
1625.000000	84.128	-135.7637
1650.000000	84.310	-136.4832
1675.000000	84.427	-137.4886
1700.000000	84.446	-138.4163
1725.000000	84.371	-138.7357
1750.000000	84.306	-138.2247
1775.000000	84.324	-137.1429
1800.000000	84.431	-136.0432
1825.000000	84.608	-135.2098
1850.000000	84.797	-134.4915
1875.000000	85.003	-134.0664
1900.000000	85.207	-133.7144
1925.000000	85.420	-133.5291
1950.000000	85.630	-133.4535
1975.000000	85.828	-133.4045
2000.000000	86.033	-133.4774
2030.000000	86.274	-133.6152
2060.000000	86.513	-133.8132
2090.000000	86.739	-134.0625
2120.000000	86.962	-134.3518
2140.000000	87.119	-134.4787
2180.000000	87.422	-134.7677
2200.000000	87.588	-134.9038
2240.000000	87.946	-135.2403
2270.000000	88.239	-135.6004
2300.000000	88.580	-136.2323
2330.000000	88.930	-137.2577
2360.000000	89.269	-138.6792
2400.000000	89.668	-141.0676
2430.000000	89.947	-143.1792
2470.000000	90.274	-146.6955
2500.000000	90.419	-149.9378
2540.000000	90.355	-154.5259
2580.000000	90.018	-157.5382
2620.000000	89.742	-158.6304
2650.000000	89.648	-159.0783
2690.000000	89.615	-159.8626
2720.000000	89.608	-160.6811
2760.000000	89.599	-161.9729
2800.000000	89.576	-163.4213
2850.000000	89.506	-165.5218
2900.000000	89.354	-167.8609
2950.000000	89.026	-170.2837
3000.000000	88.478	-171.1068
3040.000000	88.112	-169.8182
3070.000000	88.013	-168.4107
3110.000000	88.031	-167.3194
3150.000000	88.081	-166.9994
3200.000000	88.087	-167.0456
3250.000000	88.044	-167.3051
3300.000000	87.981	-167.5645
3350.000000	87.899	-167.7437
3400.000000	87.822	-167.8065
3450.000000	87.763	-167.8806
3500.000000	87.716	-168.3636
3550.000000	87.549	-168.9599
3600.000000	87.345	-168.6516
3650.000000	87.223	-167.9661
3700.000000	87.162	-167.3750
3750.000000	87.131	-166.9418
3820.000000	87.091	-166.5867
3870.000000	87.071	-166.3844
3950.000000	87.073	-166.4235
4000.000000	87.061	-166.9602
4060.000000	86.914	-168.2218
4120.000000	86.441	-167.9573
4180.000000	86.290	-164.8056
4250.000000	86.518	-162.7689
4310.000000	86.730	-162.3721
4370.000000	86.905	-162.6607
4440.000000	87.046	-163.8714
4500.000000	86.983	-165.6439
4550.000000	86.707	-166.3040
4620.000000	86.475	-164.2229
4680.000000	86.614	-162.7550
4750.000000	86.894	-162.3879
4820.000000	87.177	-163.3921
4870.000000	87.331	-164.8786
4940.000000	87.387	-167.4492
5000.000000	87.394	-169.5420
5080.000000	87.236	-174.4062
5150.000000	86.497	-179.1043
5220.000000	85.316	-179.4044
5300.000000	84.509	-174.8217
5380.000000	84.274	-170.7441
5450.000000	84.268	-168.4284
5520.000000	84.320	-167.3356
5600.000000	84.319	-167.5407
5700.000000	83.835	-168.6164
5800.000000	83.298	-165.1653
5900.000000	83.205	-162.4527
6000.000000	83.053	-161.1226
6080.000000	82.754	-159.2866
6150.000000	82.538	-156.3947
6220.000000	82.520	-152.9548
6300.000000	82.648	-149.7107
6400.000000	82.953	-146.3462
6500.000000	83.273	-143.6472
6600.000000	83.579	-140.5505
6700.000000	84.081	-137.4191
6800.000000	84.724	-135.5380
6900.000000	85.220	-135.5733
7000.000000	85.305	-133.7318
7100.000000	85.762	-129.4475
7200.000000	86.495	-125.2597
7300.000000	87.628	-121.7700
7400.000000	88.953	-120.5251
7500.000000	90.418	-121.0271
7620.000000	92.315	-125.5481
7750.000000	93.937	-136.4791
7880.000000	94.576	-148.7643
8000.000000	94.763	-158.8247
8120.000000	94.556	-168.3420
8250.000000	93.933	-177.9393
8380.000000	92.784	174.8280
8500.000000	91.562	172.5583
8620.000000	90.654	173.0376
8750.000000	89.839	174.3181
8850.000000	89.339	177.0111
9000.000000	89.224	-178.7375
9120.000000	89.400	-177.3971
9250.000000	89.594	-177.9121
9380.000000	89.668	-179.7314
9500.000000	89.556	177.8526
9620.000000	89.259	175.6103
9750.000000	88.848	173.9886
9880.000000	88.449	173.0475
10000.000000	88.125	172.0068
10150.000000	87.649	170.2413
10300.000000	87.114	169.4024
10440.000000	86.686	168.1693
10600.000000	86.029	166.2622
10750.000000	85.227	164.9304
10900.000000	84.330	164.6521
11060.000000	83.349	165.6106
11200.000000	82.650	167.4500
11380.000000	81.897	168.6520
11500.000000	81.260	169.2823
11720.000000	80.110	171.5509
11800.000000	79.650	172.5753
12060.000000	78.325	-179.6921
12200.000000	78.029	-174.8824
12410.000000	77.956	-169.1532
12500.000000	77.935	-167.0251
12650.000000	77.994	-163.1646
12800.000000	78.272	-159.3515
13150.000000	79.532	-153.5284
13200.000000	79.774	-153.1773
13400.000000	80.728	-152.5594
13600.000000	81.630	-153.2265
13800.000000	82.463	-154.6860
14000.000000	83.159	-156.4074
14300.000000	83.983	-157.9240
14500.000000	84.537	-157.5046
14750.000000	85.545	-156.5074
15000.000000	86.798	-157.8792
15250.000000	87.926	-162.8235
15500.000000	88.500	-170.2331
15750.000000	88.439	-177.3398
16000.000000	87.989	177.3847
16250.000000	87.595	173.7382
16500.000000	87.163	170.9852
16750.000000	86.661	168.1669
17000.000000	86.038	164.8356
17250.000000	85.221	160.9034
17500.000000	84.214	156.3011
17750.000000	83.052	150.9000
18000.000000	81.743	144.2893
18250.000000	80.326	136.2620
18500.000000	78.886	127.0369
18750.000000	77.632	117.5807
19000.000000	76.768	109.7692
19250.000000	76.462	103.4481
19500.000000	76.518	98.7856
19750.000000	76.661	96.4875
