* Measurement data measured by REW V5.31.3
* Source: Headset (Odo By VECLAN.COM), MICROPHONE (Master Volume), L, volume: 0.720. Timing signal peak level -15.4 dBFS, measurement signal peak level -12.1 dBFS
* Format: 2M Log Swept Sine, 1 sweep at -29.5 dBFS using an acoustic timing reference
* Dated: 11 17, 24 11:38:25 AM
* REW Settings:
*  C-weighting compensation: Off
*  Target level: 85.0 dB
* Note: ; Delay -0.0656 ms (-23 mm, -0.89 in) using estimated IR delay relative to Acoustic reference played from SPEAKER L with no timing offset
* Measurement: QKZ HBB L
* Smoothing: 1/24 octave
* Frequency Step: 96 ppo
* Start Frequency: 0.36621094 Hz
*
* Freq(Hz) SPL(dB) Phase(degrees)
0.366211 59.357 -104.6187
0.368865 59.425 -104.1297
0.371538 59.522 -103.4163
0.374230 59.631 -102.6175
0.376942 59.745 -101.7949
0.379673 59.862 -100.9707
0.382424 59.979 -100.1522
0.385196 60.097 -99.3418
0.387987 60.216 -98.5404
0.390798 60.336 -97.7487
0.393630 60.457 -96.9670
0.396483 60.579 -96.1956
0.399356 60.701 -95.4349
0.402250 60.825 -94.6852
0.405165 60.949 -93.9466
0.408101 61.074 -93.2195
0.411058 61.201 -92.5041
0.414037 61.328 -91.8004
0.417037 61.456 -91.1086
0.420059 61.585 -90.4289
0.423103 61.715 -89.7613
0.426169 61.845 -89.1060
0.429257 61.977 -88.4629
0.432368 62.110 -87.8321
0.435501 62.244 -87.2136
0.438656 62.378 -86.6073
0.441835 62.514 -86.0133
0.445037 62.651 -85.4315
0.448262 62.788 -84.8619
0.451510 62.927 -84.3042
0.454782 63.066 -83.7586
0.458077 63.207 -83.2249
0.461397 63.349 -82.7029
0.464740 63.491 -82.1925
0.468108 63.635 -81.6936
0.471500 63.780 -81.2062
0.474917 63.926 -80.7299
0.478358 64.073 -80.2647
0.481825 64.220 -79.8105
0.485316 64.369 -79.3670
0.488833 64.520 -78.9341
0.492375 64.671 -78.5116
0.495943 64.823 -78.0994
0.499537 64.976 -77.6973
0.503157 65.131 -77.3051
0.506803 65.286 -76.9227
0.510475 65.443 -76.5498
0.514175 65.601 -76.1862
0.517900 65.760 -75.8320
0.521653 65.920 -75.4867
0.525434 66.081 -75.1503
0.529241 66.244 -74.8226
0.533076 66.408 -74.5034
0.536939 66.573 -74.1926
0.540830 66.739 -73.8899
0.544749 66.906 -73.5952
0.548696 67.074 -73.3084
0.552673 67.244 -73.0293
0.556677 67.415 -72.7577
0.560711 67.587 -72.4935
0.564774 67.760 -72.2364
0.568867 67.935 -71.9645
0.572989 68.111 -71.6898
0.577141 68.288 -71.4217
0.581324 68.467 -71.1599
0.585536 68.647 -70.9044
0.589779 68.828 -70.6550
0.594053 69.010 -70.4115
0.598358 69.194 -70.1739
0.602694 69.379 -69.9419
0.607061 69.565 -69.7156
0.611460 69.753 -69.4946
0.615891 69.942 -69.2790
0.620354 70.133 -69.0685
0.624849 70.324 -68.8631
0.629377 70.518 -68.6627
0.633938 70.712 -68.4671
0.638532 70.908 -68.2762
0.643159 71.106 -68.0900
0.647819 71.305 -67.9083
0.652514 71.505 -67.7310
0.657242 71.707 -67.5580
0.662005 71.910 -67.3892
0.666802 72.115 -67.2245
0.671634 72.321 -67.0639
0.676501 72.529 -66.9072
0.681403 72.738 -66.7543
0.686341 72.949 -66.6052
0.691314 73.161 -66.4598
0.696324 73.375 -66.3180
0.701370 73.591 -66.1798
0.706452 73.808 -66.0454
0.711571 74.026 -65.9159
0.716728 74.245 -65.7943
0.721921 74.465 -65.6906
0.727153 74.682 -65.6296
0.732422 74.891 -65.6604
0.737729 75.088 -65.8322
0.743075 75.278 -66.0853
0.748460 75.464 -66.3676
0.753883 75.649 -66.6548
0.759346 75.834 -66.9381
0.764849 76.018 -67.2151
0.770391 76.202 -67.3817
0.775974 76.386 -67.5141
0.781597 76.570 -67.6402
0.787261 76.754 -67.7606
0.792966 76.937 -67.8760
0.798712 77.120 -67.9869
0.804500 77.303 -68.0940
0.810329 77.486 -68.1978
0.816201 77.668 -68.2988
0.822116 77.850 -68.3976
0.828073 78.032 -68.4948
0.834074 78.214 -68.5907
0.840118 78.395 -68.6860
0.846206 78.577 -68.7810
0.852338 78.757 -68.8762
0.858514 78.938 -68.9721
0.864735 79.118 -69.0691
0.871001 79.298 -69.1676
0.877313 79.478 -69.2680
0.883670 79.657 -69.3706
0.890074 79.836 -69.4759
0.896524 80.015 -69.5842
0.903020 80.194 -69.6958
0.909564 80.372 -69.8112
0.916155 80.550 -69.9306
0.922794 80.728 -70.0543
0.929481 80.905 -70.1828
0.936216 81.082 -70.3162
0.943000 81.259 -70.4548
0.949834 81.435 -70.5991
0.956717 81.611 -70.7492
0.963649 81.787 -70.9055
0.970632 81.963 -71.0499
0.977666 82.138 -71.1916
0.984750 82.313 -71.3401
0.991886 82.488 -71.4955
0.999074 82.662 -71.6582
1.006314 82.837 -71.8285
1.013606 83.011 -72.0064
1.020951 83.185 -72.1924
1.028349 83.358 -72.3866
1.035801 83.532 -72.5892
1.043307 83.705 -72.8005
1.050867 83.878 -73.0207
1.058482 84.051 -73.2501
1.066152 84.224 -73.4887
1.073878 84.396 -73.7368
1.081660 84.569 -73.9943
1.089498 84.741 -74.2607
1.097393 84.914 -74.5342
1.105345 85.086 -74.8117
1.113355 85.257 -75.0894
1.121423 85.428 -75.3651
1.129549 85.598 -75.6379
1.137734 85.768 -75.9077
1.145979 85.937 -76.1743
1.154283 86.105 -76.4378
1.162647 86.272 -76.6984
1.171072 86.438 -76.9572
1.179558 86.604 -77.2141
1.188106 86.768 -77.4684
1.196715 86.931 -77.7204
1.205387 87.094 -77.9703
1.214122 87.255 -78.2182
1.222920 87.415 -78.4643
1.231782 87.573 -78.7088
1.240708 87.730 -78.9520
1.249699 87.886 -79.1940
1.258754 88.041 -79.4352
1.267876 88.194 -79.6756
1.277063 88.345 -79.9155
1.286318 88.495 -80.1552
1.295639 88.643 -80.3950
1.305027 88.789 -80.6350
1.314484 88.933 -80.8756
1.324009 89.076 -81.1169
1.333604 89.216 -81.3593
1.343268 89.355 -81.6029
1.353002 89.491 -81.8482
1.362806 89.625 -82.0953
1.372681 89.756 -82.3398
1.382628 89.885 -82.5844
1.392647 90.012 -82.8317
1.402739 90.136 -83.0818
1.412904 90.258 -83.3352
1.423142 90.376 -83.5921
1.433455 90.492 -83.8528
1.443843 90.604 -84.1173
1.454305 90.714 -84.3857
1.464844 90.819 -84.6574
1.475459 90.920 -84.9307
1.486150 91.015 -85.2043
1.496920 91.104 -85.4771
1.507767 91.188 -85.7486
1.518693 91.266 -86.0186
1.529698 91.338 -86.2868
1.540783 91.406 -86.5533
1.551948 91.468 -86.8179
1.563194 91.525 -87.0805
1.574521 91.578 -87.3363
1.585931 91.626 -87.5884
1.597423 91.670 -87.8385
1.608999 91.711 -88.0867
1.620658 91.748 -88.3328
1.632402 91.782 -88.5771
1.644232 91.813 -88.8196
1.656146 91.842 -89.0604
1.668147 91.868 -89.2996
1.680235 91.893 -89.5373
1.692411 91.916 -89.7737
1.704675 91.939 -90.0089
1.717028 91.961 -90.2432
1.729470 91.984 -90.4766
1.742003 92.007 -90.7094
1.754626 92.031 -90.9418
1.767341 92.056 -91.1747
1.780147 92.084 -91.4132
1.793047 92.114 -91.6520
1.806040 92.147 -91.8913
1.819128 92.184 -92.1315
1.832310 92.224 -92.3726
1.845587 92.265 -92.6146
1.858961 92.307 -92.8570
1.872432 92.349 -93.0996
1.886001 92.391 -93.3419
1.899667 92.432 -93.5837
1.913433 92.474 -93.8245
1.927299 92.514 -94.0640
1.941265 92.555 -94.3021
1.955332 92.595 -94.5383
1.969501 92.635 -94.7740
1.983773 92.675 -95.0120
1.998148 92.714 -95.2476
2.012627 92.753 -95.4806
2.027212 92.792 -95.7109
2.041902 92.831 -95.9384
2.056698 92.870 -96.1630
2.071602 92.908 -96.3845
2.086614 92.947 -96.6029
2.101734 92.985 -96.8182
2.116964 93.023 -97.0303
2.132304 93.062 -97.2392
2.147756 93.100 -97.4450
2.163320 93.139 -97.6477
2.178996 93.177 -97.8542
2.194786 93.216 -98.0596
2.210690 93.255 -98.2633
2.226710 93.293 -98.4659
2.242845 93.331 -98.6676
2.259098 93.369 -98.8683
2.275468 93.406 -99.0676
2.291957 93.444 -99.2652
2.308566 93.481 -99.4608
2.325295 93.518 -99.6540
2.342145 93.554 -99.8446
2.359117 93.591 -100.0322
2.376212 93.627 -100.2231
2.393431 93.664 -100.4150
2.410775 93.700 -100.6032
2.428244 93.736 -100.7875
2.445840 93.773 -100.9675
2.463564 93.809 -101.1432
2.481416 93.846 -101.3142
2.499397 93.883 -101.4804
2.517509 93.920 -101.6417
2.535752 93.957 -101.7980
2.554127 93.995 -101.9494
2.572635 94.032 -102.1025
2.591277 94.070 -102.2631
2.610055 94.108 -102.4206
2.628968 94.146 -102.5752
2.648019 94.183 -102.7269
2.667208 94.221 -102.8754
2.686535 94.259 -103.0207
2.706003 94.297 -103.1626
2.725612 94.335 -103.3010
2.745363 94.373 -103.4356
2.765257 94.411 -103.5664
2.785295 94.449 -103.7083
2.805478 94.488 -103.8468
2.825808 94.526 -103.9810
2.846285 94.565 -104.1110
2.866910 94.605 -104.2364
2.887685 94.644 -104.3572
2.908611 94.684 -104.4734
2.929688 94.724 -104.5847
2.950917 94.765 -104.6913
2.972301 94.806 -104.7980
2.993839 94.846 -104.9119
3.015534 94.888 -105.0215
3.037386 94.929 -105.1272
3.059396 94.970 -105.2290
3.081565 95.012 -105.3271
3.103896 95.054 -105.4217
3.126388 95.096 -105.5130
3.149043 95.139 -105.6011
3.171862 95.182 -105.6902
3.194847 95.226 -105.7882
3.217998 95.270 -105.8835
3.241317 95.314 -105.9763
3.264805 95.359 -106.0665
3.288463 95.405 -106.1540
3.312293 95.452 -106.2382
3.336295 95.498 -106.3186
3.360471 95.546 -106.3948
3.384822 95.594 -106.4798
3.409350 95.642 -106.5649
3.434056 95.691 -106.6469
3.458940 95.741 -106.7263
3.484005 95.791 -106.8034
3.509252 95.841 -106.8786
3.534681 95.892 -106.9525
3.560295 95.944 -107.0254
3.586094 95.996 -107.1123
3.612081 96.048 -107.2032
3.638255 96.101 -107.2942
3.664620 96.154 -107.3851
3.691175 96.208 -107.4750
3.717923 96.262 -107.5634
3.744864 96.317 -107.6499
3.772001 96.373 -107.7389
3.799335 96.429 -107.8419
3.826866 96.486 -107.9436
3.854597 96.543 -108.0446
3.882529 96.600 -108.1451
3.910664 96.658 -108.2455
3.939002 96.716 -108.3462
3.967546 96.774 -108.4486
3.996296 96.832 -108.5704
4.025255 96.890 -108.6935
4.054423 96.949 -108.8177
4.083804 97.007 -108.9429
4.113396 97.066 -109.0684
4.143204 97.126 -109.1941
4.173227 97.186 -109.3246
4.203468 97.245 -109.4701
4.233928 97.305 -109.6154
4.264609 97.365 -109.7605
4.295512 97.425 -109.9052
4.326639 97.485 -110.0497
4.357992 97.544 -110.1941
4.389572 97.603 -110.3537
4.421380 97.662 -110.5193
4.453419 97.721 -110.6863
4.485691 97.780 -110.8545
4.518196 97.838 -111.0234
4.550936 97.896 -111.1923
4.583914 97.955 -111.3711
4.617131 98.012 -111.5575
4.650589 98.070 -111.7423
4.684289 98.127 -111.9249
4.718233 98.184 -112.1051
4.752424 98.241 -112.2831
4.786862 98.297 -112.4708
4.821549 98.353 -112.6656
4.856488 98.409 -112.8605
4.891680 98.464 -113.0549
4.927127 98.518 -113.2480
4.962831 98.573 -113.4391
4.998794 98.627 -113.6432
5.035017 98.681 -113.8452
5.071503 98.734 -114.0428
5.108253 98.787 -114.2359
5.145270 98.840 -114.4249
5.182555 98.893 -114.6187
5.220110 98.945 -114.8198
5.257937 98.996 -115.0187
5.296038 99.048 -115.2147
5.334415 99.099 -115.4074
5.373071 99.150 -115.5993
5.412006 99.200 -115.8014
5.451224 99.251 -115.9984
5.490725 99.302 -116.1902
5.530514 99.352 -116.3772
5.570590 99.403 -116.5622
5.610957 99.453 -116.7599
5.651616 99.503 -116.9541
5.692570 99.553 -117.1446
5.733821 99.603 -117.3314
5.775370 99.653 -117.5181
5.817221 99.704 -117.7146
5.859375 99.754 -117.9070
5.901834 99.805 -118.0954
5.944602 99.856 -118.2800
5.987679 99.906 -118.4701
6.031068 99.957 -118.6659
6.074771 100.008 -118.8591
6.118792 100.060 -119.0499
6.163131 100.111 -119.2385
6.207792 100.162 -119.4403
6.252776 100.214 -119.6413
6.298086 100.266 -119.8404
6.343725 100.318 -120.0377
6.389694 100.370 -120.2419
6.435996 100.423 -120.4529
6.482634 100.475 -120.6631
6.529610 100.528 -120.8730
6.576926 100.580 -121.0862
6.624585 100.633 -121.3107
6.672590 100.685 -121.5355
6.720942 100.738 -121.7605
6.769645 100.790 -121.9868
6.818700 100.842 -122.2270
6.868111 100.895 -122.4675
6.917881 100.947 -122.7087
6.968010 100.999 -122.9513
7.018504 101.050 -123.2088
7.069362 101.102 -123.4678
7.120590 101.153 -123.7280
7.172189 101.204 -123.9906
7.224161 101.254 -124.2659
7.276511 101.304 -124.5417
7.329239 101.353 -124.8182
7.382350 101.402 -125.1002
7.435845 101.450 -125.3934
7.489729 101.497 -125.6880
7.544002 101.544 -125.9832
7.598669 101.590 -126.2870
7.653732 101.635 -126.5964
7.709194 101.679 -126.9058
7.765058 101.723 -127.2160
7.821327 101.765 -127.5414
7.878004 101.807 -127.8674
7.935091 101.847 -128.1926
7.992592 101.886 -128.5212
8.050510 101.924 -128.8537
8.108847 101.960 -129.1850
8.167607 101.996 -129.5163
8.226793 102.029 -129.8577
8.286408 102.061 -130.1964
8.346454 102.092 -130.5305
8.406936 102.122 -130.8674
8.467856 102.150 -131.2032
8.529218 102.176 -131.5351
8.591024 102.201 -131.8669
8.653278 102.225 -132.1986
8.715983 102.246 -132.5208
8.779143 102.267 -132.8339
8.842760 102.285 -133.1442
8.906839 102.302 -133.4444
8.971381 102.317 -133.7343
9.036392 102.330 -134.0199
9.101873 102.343 -134.2894
9.167829 102.356 -134.5411
9.234263 102.367 -134.7837
9.301178 102.378 -135.0089
9.368578 102.389 -135.2168
9.436467 102.400 -135.4166
9.504847 102.412 -135.5965
9.573723 102.425 -135.7567
9.643099 102.439 -135.9063
9.712976 102.454 -136.0371
9.783361 102.469 -136.1543
9.854255 102.486 -136.2650
9.925663 102.503 -136.3619
9.997588 102.522 -136.4445
10.070035 102.541 -136.5421
10.143007 102.562 -136.6353
10.216507 102.586 -136.7285
10.290540 102.612 -136.8243
10.365109 102.641 -136.9223
10.440219 102.673 -137.0253
10.515873 102.706 -137.1387
10.592076 102.742 -137.2684
10.668830 102.780 -137.4173
10.746141 102.819 -137.5852
10.824012 102.860 -137.7722
10.902447 102.902 -137.9800
10.981451 102.943 -138.2110
11.061027 102.985 -138.4977
11.141180 103.026 -138.8171
11.221913 103.065 -139.1557
11.303232 103.101 -139.5095
11.385140 103.134 -139.8769
11.467641 103.163 -140.2578
11.550741 103.188 -140.6478
11.634442 103.209 -141.0389
11.718750 103.225 -141.4244
11.803669 103.237 -141.8022
11.889203 103.245 -142.1705
11.975357 103.250 -142.5235
12.062136 103.252 -142.8799
12.149543 103.251 -143.2198
12.237583 103.249 -143.5329
12.326262 103.248 -143.8187
12.415583 103.248 -144.0756
12.505552 103.251 -144.3019
12.596172 103.258 -144.4985
12.687449 103.269 -144.6708
12.779387 103.285 -144.8254
12.871992 103.306 -144.9665
12.965268 103.333 -145.0965
13.059220 103.364 -145.2452
13.153852 103.400 -145.4145
13.249170 103.441 -145.5991
13.345179 103.486 -145.8015
13.441884 103.534 -146.0272
13.539289 103.584 -146.2829
13.637401 103.634 -146.5728
13.736223 103.685 -146.8959
13.835761 103.733 -147.2500
13.936021 103.779 -147.6337
14.037007 103.821 -148.0565
14.138725 103.858 -148.5202
14.241180 103.890 -148.9969
14.344377 103.915 -149.4796
14.448323 103.934 -149.9642
14.553021 103.947 -150.4412
14.658478 103.953 -150.8993
14.764700 103.954 -151.3327
14.871691 103.949 -151.7370
14.979457 103.942 -152.1055
15.088005 103.933 -152.4557
15.197339 103.922 -152.7693
15.307465 103.913 -153.0425
15.418389 103.905 -153.2768
15.530117 103.899 -153.4743
15.642655 103.898 -153.6418
15.756008 103.901 -153.7883
15.870182 103.910 -153.9198
15.985184 103.924 -154.0435
16.101019 103.943 -154.1877
16.217694 103.967 -154.3442
16.335214 103.996 -154.5142
16.453586 104.027 -154.7025
16.572815 104.059 -154.9127
16.692909 104.092 -155.1448
16.813872 104.124 -155.3975
16.935713 104.155 -155.6691
17.058436 104.185 -155.9664
17.182048 104.212 -156.2861
17.306556 104.236 -156.6136
17.431967 104.258 -156.9462
17.558286 104.277 -157.2798
17.685521 104.294 -157.6115
17.813677 104.308 -157.9396
17.942762 104.321 -158.2626
18.072783 104.332 -158.5902
18.203746 104.341 -158.9199
18.335658 104.349 -159.2427
18.468526 104.355 -159.5581
18.602356 104.360 -159.8652
18.737156 104.363 -160.1626
18.872934 104.364 -160.4487
19.009695 104.363 -160.7220
19.147447 104.360 -160.9912
19.286197 104.357 -161.2420
19.425953 104.353 -161.4721
19.566721 104.348 -161.6801
19.708510 104.345 -161.8664
19.851326 104.343 -162.0326
19.995177 104.344 -162.1812
20.140070 104.347 -162.3328
20.286013 104.354 -162.4784
20.433014 104.365 -162.6239
20.581080 104.379 -162.7767
20.730219 104.395 -162.9422
20.880439 104.413 -163.1253
21.031747 104.432 -163.3325
21.184152 104.451 -163.5726
21.337661 104.468 -163.8320
21.492282 104.482 -164.1069
21.648024 104.493 -164.3910
21.804895 104.500 -164.6782
21.962902 104.505 -164.9610
22.122054 104.506 -165.2424
22.282360 104.505 -165.5119
22.443827 104.504 -165.7643
22.606464 104.503 -166.0003
22.770280 104.503 -166.2238
22.935283 104.505 -166.4398
23.101481 104.509 -166.6640
23.268884 104.516 -166.9007
23.437500 104.523 -167.1511
23.607338 104.531 -167.4195
23.778406 104.537 -167.7054
23.950714 104.541 -168.0051
24.124271 104.541 -168.3200
24.299086 104.536 -168.6339
24.475167 104.528 -168.9323
24.652524 104.517 -169.2033
24.831166 104.504 -169.4398
25.011103 104.493 -169.6390
25.192344 104.487 -169.8118
25.374898 104.486 -169.9614
25.558775 104.494 -170.1036
25.743984 104.510 -170.2595
25.930536 104.534 -170.4483
26.118439 104.563 -170.6950
26.307704 104.593 -171.0060
26.498341 104.622 -171.3785
26.690359 104.646 -171.8043
26.883768 104.661 -172.2664
27.078579 104.667 -172.7459
27.274801 104.662 -173.2196
27.472446 104.650 -173.6630
27.671522 104.632 -174.0600
27.872042 104.612 -174.4045
28.074014 104.594 -174.7016
28.277450 104.579 -174.9657
28.482360 104.569 -175.2057
28.688755 104.564 -175.4388
28.896645 104.562 -175.6762
29.106042 104.560 -175.9268
29.316957 104.557 -176.1874
29.529400 104.553 -176.4458
29.743382 104.545 -176.6903
29.958915 104.537 -176.9126
30.176009 104.530 -177.1149
30.394677 104.526 -177.2991
30.614929 104.526 -177.4763
30.836778 104.529 -177.6614
31.060234 104.535 -177.8683
31.285309 104.539 -178.1051
31.512015 104.539 -178.3582
31.740364 104.535 -178.6118
31.970368 104.525 -178.8455
32.202039 104.512 -179.0498
32.435388 104.501 -179.2138
32.670428 104.496 -179.3480
32.907171 104.499 -179.4797
33.145630 104.511 -179.6497
33.385817 104.528 -179.8905
33.627745 104.544 179.7798
33.871425 104.552 179.3644
34.116871 104.544 178.8874
34.364096 104.516 178.3945
34.613113 104.469 177.9482
34.863934 104.406 177.6000
35.116572 104.335 177.3841
35.371041 104.265 177.3127
35.627354 104.206 177.3735
35.885525 104.164 177.5320
36.145566 104.142 177.7371
36.407492 104.141 177.9413
36.671316 104.158 178.1069
36.937051 104.191 178.2024
37.204712 104.235 178.2022
37.474313 104.284 178.0936
37.745867 104.335 177.8721
38.019389 104.382 177.5432
38.294893 104.418 177.1218
38.572394 104.441 176.6449
38.851905 104.449 176.1488
39.133442 104.444 175.6663
39.417019 104.429 175.2208
39.702651 104.407 174.8218
39.990353 104.383 174.4657
40.280140 104.357 174.1414
40.572026 104.329 173.8489
40.866028 104.299 173.5928
41.162160 104.269 173.3770
41.460438 104.242 173.1986
41.760877 104.223 173.0397
42.063494 104.211 172.8633
42.368303 104.205 172.6287
42.675322 104.196 172.3282
42.984565 104.179 171.9816
43.296048 104.148 171.6369
43.609789 104.107 171.3495
43.925804 104.066 171.1515
44.244108 104.035 171.0239
44.564719 104.021 170.9043
44.887654 104.021 170.7183
45.212928 104.025 170.4200
45.540560 104.019 170.0280
45.870565 103.995 169.6155
46.202962 103.955 169.2723
46.537768 103.911 169.0601
46.875000 103.879 168.9734
47.214676 103.868 168.9363
47.556813 103.878 168.8531
47.901429 103.897 168.6653
48.248542 103.910 168.3802
48.598171 103.909 168.0650
48.950334 103.896 167.7968
49.305048 103.881 167.6120
49.662333 103.874 167.4927
50.022206 103.879 167.3760
50.384688 103.891 167.1985
50.749796 103.900 166.9404
51.117550 103.896 166.6297
51.487969 103.877 166.3210
51.861072 103.846 166.0621
52.236879 103.811 165.8644
52.615409 103.777 165.7134
52.996681 103.744 165.5855
53.380717 103.712 165.4633
53.767536 103.681 165.3470
54.157158 103.652 165.2351
54.549603 103.627 165.1141
54.944892 103.607 164.9608
55.343045 103.588 164.7555
55.744084 103.566 164.5061
56.148028 103.540 164.2360
56.554900 103.510 163.9702
56.964720 103.481 163.7214
57.377510 103.454 163.4829
57.793291 103.430 163.2409
58.212085 103.407 162.9915
58.633914 103.384 162.7450
59.058799 103.361 162.5128
59.486764 103.341 162.2915
59.917829 103.322 162.0728
60.352019 103.303 161.8539
60.789354 103.281 161.6473
61.229859 103.259 161.4645
61.673556 103.237 161.3058
62.120468 103.219 161.1577
62.570618 103.201 161.0055
63.024031 103.182 160.8450
63.480729 103.161 160.6794
63.940736 103.139 160.5195
64.404077 103.119 160.3596
64.870776 103.098 160.1819
65.340856 103.075 159.9778
65.814343 103.048 159.7655
66.291261 103.018 159.5699
66.771635 102.987 159.4018
67.255489 102.959 159.2504
67.742850 102.936 159.0945
68.233743 102.915 158.9169
68.728193 102.895 158.7159
69.226226 102.872 158.5070
69.727867 102.848 158.3043
70.233144 102.825 158.1025
70.742083 102.803 157.8826
71.254709 102.778 157.6392
71.771050 102.747 157.3990
72.291132 102.710 157.2047
72.814984 102.675 157.0729
73.342631 102.649 156.9728
73.874102 102.633 156.8530
74.409424 102.622 156.6742
74.948626 102.609 156.4287
75.491734 102.587 156.1366
76.038779 102.554 155.8510
76.589787 102.513 155.6293
77.144788 102.471 155.4945
77.703811 102.435 155.4189
78.266885 102.408 155.3466
78.834039 102.384 155.2427
79.405303 102.357 155.1134
79.980706 102.326 154.9754
80.560280 102.291 154.8397
81.144053 102.249 154.7242
81.732056 102.205 154.6670
82.324320 102.168 154.6761
82.920876 102.148 154.6659
83.521755 102.137 154.5243
84.126988 102.116 154.2491
84.736607 102.073 153.9950
85.350643 102.029 153.8930
85.969129 102.011 153.8575
86.592097 102.015 153.6697
87.219579 102.008 153.2425
87.851608 101.963 152.7677
88.488217 101.891 152.5309
89.129439 101.833 152.5821
89.775308 101.811 152.6860
90.425856 101.810 152.5919
91.081119 101.791 152.3198
91.741131 101.744 152.1153
92.405925 101.697 152.1044
93.075536 101.674 152.1339
93.750000 101.662 151.9995
94.429351 101.637 151.7219
95.113625 101.590 151.4550
95.802858 101.534 151.2976
96.497085 101.482 151.2501
97.196342 101.444 151.2394
97.900667 101.415 151.2025
98.610096 101.391 151.1349
99.324665 101.370 151.0372
100.044413 101.349 150.8939
100.769376 101.324 150.7169
101.499592 101.292 150.5469
102.235100 101.258 150.3921
102.975938 101.221 150.2286
103.722144 101.178 150.0714
104.473757 101.130 149.9677
105.230817 101.086 149.9404
105.993363 101.053 149.9479
106.761435 101.032 149.9079
107.535072 101.014 149.7665
108.314315 100.987 149.5549
109.099206 100.946 149.3541
109.889783 100.899 149.2167
110.686090 100.852 149.1353
111.488167 100.808 149.0794
112.296056 100.768 149.0207
113.109800 100.730 148.9431
113.929440 100.692 148.8380
114.755020 100.653 148.7172
115.586582 100.613 148.5797
116.424170 100.571 148.4411
117.267827 100.529 148.3210
118.117598 100.488 148.2265
118.973527 100.452 148.1520
119.835658 100.420 148.0884
120.704037 100.391 148.0207
121.578708 100.362 147.9390
122.459718 100.331 147.8479
123.347111 100.297 147.7621
124.240935 100.261 147.6929
125.141236 100.225 147.6421
126.048061 100.191 147.5972
126.961458 100.160 147.5462
127.881473 100.130 147.4867
128.808154 100.099 147.4266
129.741551 100.068 147.3714
130.681712 100.037 147.3312
131.628686 100.006 147.2963
132.582521 99.974 147.2561
133.543269 99.940 147.2053
134.510979 99.904 147.1423
135.485701 99.864 147.0814
136.467486 99.822 147.0361
137.456386 99.781 147.0047
138.452451 99.742 146.9828
139.455735 99.705 146.9511
140.466288 99.667 146.8950
141.484165 99.629 146.8294
142.509418 99.589 146.7606
143.542100 99.551 146.6845
144.582265 99.514 146.6006
145.629968 99.478 146.5168
146.685262 99.442 146.4435
147.748204 99.407 146.3942
148.818849 99.371 146.3745
149.897251 99.334 146.3888
150.983469 99.296 146.4114
152.077557 99.256 146.4333
153.179574 99.214 146.4474
154.289576 99.175 146.4463
155.407622 99.136 146.3981
156.533770 99.096 146.3198
157.668078 99.053 146.2614
158.810606 99.012 146.2354
159.961413 98.971 146.2164
161.120559 98.927 146.1933
162.288105 98.879 146.1877
163.464112 98.828 146.2039
164.648640 98.776 146.2183
165.841752 98.724 146.2363
167.043510 98.674 146.2547
168.253976 98.628 146.2791
169.473213 98.583 146.2831
170.701286 98.537 146.2880
171.938258 98.486 146.3182
173.184194 98.432 146.4096
174.439158 98.377 146.5330
175.703216 98.322 146.6350
176.976434 98.261 146.6765
178.258878 98.197 146.7080
179.550615 98.137 146.7495
180.851713 98.090 146.7764
182.162239 98.056 146.7690
183.482262 98.035 146.7673
184.811850 98.025 146.7781
186.151073 98.020 146.7764
187.500000 98.011 146.7914
188.858702 97.997 146.8379
190.227250 97.976 146.9258
191.605715 97.949 147.0011
192.994169 97.914 147.0538
194.392685 97.873 147.0552
195.801334 97.828 147.0301
197.220191 97.782 146.9672
198.649330 97.735 146.9000
200.088825 97.686 146.8829
201.538751 97.638 146.9439
202.999184 97.595 147.0526
204.470200 97.557 147.1320
205.951875 97.519 147.1697
207.444287 97.482 147.1792
208.947514 97.446 147.1696
210.461634 97.410 147.1536
211.986726 97.372 147.1447
213.522869 97.335 147.1602
215.070144 97.300 147.2304
216.628631 97.270 147.3416
218.198411 97.245 147.4906
219.779567 97.219 147.6353
221.372180 97.185 147.7430
222.976334 97.141 147.7941
224.592112 97.089 147.8180
226.219600 97.037 147.8307
227.858880 96.991 147.8454
229.510039 96.952 147.8729
231.173164 96.916 147.9440
232.848340 96.883 148.0524
234.535655 96.850 148.1434
236.235197 96.814 148.2138
237.947054 96.776 148.2615
239.671317 96.739 148.3443
241.408074 96.704 148.4508
243.157416 96.671 148.5638
244.919435 96.636 148.6646
246.694223 96.598 148.7526
248.481871 96.560 148.8199
250.282473 96.521 148.8748
252.096123 96.483 148.9298
253.922915 96.445 149.0029
255.762945 96.408 149.0888
257.616309 96.371 149.2001
259.483103 96.334 149.3260
261.363424 96.296 149.4676
263.257372 96.256 149.6093
265.165043 96.216 149.7341
267.086538 96.174 149.8330
269.021957 96.134 149.9235
270.971401 96.096 150.0212
272.934972 96.062 150.1478
274.912771 96.028 150.2933
276.904902 95.994 150.4411
278.911469 95.959 150.5922
280.932577 95.922 150.7323
282.968330 95.887 150.8572
285.018835 95.853 150.9584
287.084199 95.819 151.0507
289.164530 95.784 151.1434
291.259935 95.745 151.2513
293.370525 95.704 151.3902
295.496408 95.665 151.5331
297.637697 95.627 151.6464
299.794503 95.591 151.7568
301.966937 95.555 151.9013
304.155114 95.519 152.0696
306.359147 95.483 152.2346
308.579152 95.448 152.3739
310.815244 95.416 152.5103
313.067539 95.386 152.6492
315.336156 95.357 152.8029
317.621211 95.325 152.9608
319.922826 95.290 153.1263
322.241118 95.252 153.2861
324.576210 95.214 153.4406
326.928223 95.180 153.5886
329.297280 95.152 153.7575
331.683504 95.128 153.9224
334.087019 95.102 154.0997
336.507952 95.073 154.2617
338.946427 95.039 154.4285
341.402572 95.004 154.5903
343.876516 94.970 154.7632
346.368387 94.936 154.9159
348.878315 94.902 155.0633
351.406431 94.871 155.2064
353.952867 94.842 155.3526
356.517756 94.815 155.5125
359.101230 94.787 155.6815
361.703426 94.757 155.8664
364.324478 94.726 156.0375
366.964523 94.699 156.1940
369.623699 94.677 156.3357
372.302145 94.656 156.4673
375.000000 94.630 156.6254
377.717405 94.595 156.8173
380.454501 94.556 157.0798
383.211431 94.516 157.3605
385.988339 94.479 157.6121
388.785369 94.449 157.8133
391.602668 94.426 157.9835
394.440383 94.404 158.1508
397.298660 94.378 158.3470
400.177650 94.350 158.5427
403.077502 94.323 158.7317
405.998368 94.296 158.9112
408.940400 94.266 159.0928
411.903750 94.234 159.2741
414.888575 94.202 159.4519
417.895028 94.173 159.6341
420.923268 94.149 159.8382
423.973452 94.129 160.0553
427.045738 94.110 160.2864
430.140287 94.088 160.5284
433.257261 94.061 160.7932
436.396822 94.031 161.0673
439.559133 94.001 161.3190
442.744360 93.974 161.5241
445.952668 93.950 161.7227
449.184225 93.932 161.9411
452.439199 93.916 162.1747
455.717760 93.897 162.4078
459.020079 93.873 162.6300
462.346327 93.844 162.8409
465.696680 93.816 163.0460
469.071310 93.792 163.2690
472.470394 93.772 163.4874
475.894109 93.752 163.6970
479.342634 93.729 163.8878
482.816148 93.701 164.0624
486.314833 93.673 164.2245
489.838871 93.646 164.3961
493.388445 93.620 164.6142
496.963741 93.595 164.9169
500.564945 93.574 165.2647
504.192245 93.557 165.5688
507.845830 93.541 165.8407
511.525890 93.523 166.0970
515.232618 93.505 166.3486
518.966206 93.487 166.6031
522.726849 93.468 166.8687
526.514743 93.451 167.1315
530.330086 93.433 167.3864
534.173076 93.414 167.6274
538.043915 93.394 167.8602
541.942803 93.374 168.1069
545.869944 93.356 168.3972
549.825542 93.338 168.7151
553.809805 93.322 168.9958
557.822939 93.307 169.2305
561.865154 93.293 169.4590
565.936660 93.280 169.7055
570.037671 93.267 169.9674
574.168399 93.253 170.2593
578.329060 93.239 170.5587
582.519870 93.225 170.8668
586.741049 93.209 171.1788
590.992817 93.189 171.4793
595.275394 93.169 171.7552
599.589005 93.153 172.0173
603.933874 93.141 172.2895
608.310228 93.132 172.5851
612.718295 93.124 172.8701
617.158304 93.116 173.1503
621.630488 93.107 173.4326
626.135079 93.098 173.7265
630.672311 93.087 174.0450
635.242423 93.076 174.3696
639.845651 93.063 174.6950
644.482237 93.050 175.0070
649.152421 93.038 175.3106
653.856447 93.027 175.5953
658.594560 93.017 175.8828
663.367008 93.009 176.1891
668.174039 93.003 176.4890
673.015903 92.997 176.8021
677.892854 92.988 177.1145
682.805145 92.977 177.4319
687.753032 92.966 177.7452
692.736774 92.961 178.0535
697.756631 92.959 178.3490
702.812863 92.959 178.6573
707.905735 92.959 178.9848
713.035511 92.956 179.3015
718.202461 92.951 179.6277
723.406852 92.947 179.9509
728.648956 92.944 -179.7130
733.929047 92.940 -179.4058
739.247399 92.935 -179.1138
744.604290 92.927 -178.8448
750.000000 92.916 -178.5475
755.434809 92.904 -178.2048
760.909001 92.892 -177.8186
766.422861 92.884 -177.3899
771.976677 92.883 -176.9462
777.570739 92.887 -176.5042
783.205337 92.893 -176.0921
788.880766 92.902 -175.7016
794.597321 92.912 -175.3241
800.355301 92.922 -174.9359
806.155005 92.930 -174.5516
811.996736 92.937 -174.1555
817.880799 92.942 -173.7443
823.807501 92.949 -173.3075
829.777150 92.958 -172.8646
835.790057 92.971 -172.4136
841.846536 92.986 -171.9802
847.946903 93.004 -171.5576
854.091476 93.024 -171.1507
860.280575 93.045 -170.7503
866.514523 93.069 -170.3478
872.793644 93.093 -169.9536
879.118267 93.119 -169.5656
885.488720 93.145 -169.1906
891.905336 93.172 -168.8167
898.368450 93.201 -168.4424
904.878398 93.232 -168.0607
911.435520 93.263 -167.6909
918.040157 93.293 -167.3131
924.692655 93.323 -166.9387
931.393359 93.353 -166.5783
938.142619 93.386 -166.2202
944.940787 93.421 -165.8675
951.788218 93.459 -165.5227
958.685268 93.499 -165.1751
965.632296 93.539 -164.8326
972.629666 93.581 -164.4960
979.677741 93.623 -164.1625
986.776890 93.668 -163.8263
993.927482 93.714 -163.5004
1001.129891 93.761 -163.1919
1008.384491 93.808 -162.8892
1015.691660 93.855 -162.6074
1023.051781 93.903 -162.3231
1030.465236 93.951 -162.0538
1037.932411 94.000 -161.7923
1045.453698 94.050 -161.5354
1053.029486 94.101 -161.2985
1060.660172 94.153 -161.0624
1068.346153 94.204 -160.8340
1076.087829 94.257 -160.6061
1083.885605 94.311 -160.3800
1091.739887 94.366 -160.1673
1099.651084 94.420 -159.9736
1107.619609 94.475 -159.7955
1115.645878 94.530 -159.6282
1123.730308 94.583 -159.4650
1131.873321 94.635 -159.3194
1140.075341 94.685 -159.1954
1148.336797 94.735 -159.0759
1156.658119 94.788 -158.9480
1165.039741 94.844 -158.8257
1173.482099 94.902 -158.6989
1181.985634 94.957 -158.6006
1190.550789 95.011 -158.5123
1199.178011 95.065 -158.4376
1207.867749 95.117 -158.3503
1216.620457 95.167 -158.2710
1225.436590 95.217 -158.1883
1234.316609 95.269 -158.1197
1243.260976 95.320 -158.0700
1252.270157 95.372 -158.0374
1261.344623 95.422 -158.0081
1270.484846 95.471 -157.9842
1279.691303 95.517 -157.9507
1288.964474 95.563 -157.9229
1298.304842 95.610 -157.8910
1307.712894 95.659 -157.8639
1317.189120 95.708 -157.8553
1326.734016 95.755 -157.8359
1336.348077 95.800 -157.8222
1346.031806 95.844 -157.7946
1355.785708 95.888 -157.7620
1365.610290 95.932 -157.7571
1375.506065 95.977 -157.7625
1385.473549 96.021 -157.7659
1395.513261 96.065 -157.7641
1405.625726 96.108 -157.7611
1415.811469 96.150 -157.7555
1426.071023 96.192 -157.7529
1436.404921 96.232 -157.7534
1446.813703 96.272 -157.7534
1457.297912 96.313 -157.7579
1467.858093 96.353 -157.7517
1478.494798 96.392 -157.7452
1489.208581 96.433 -157.7375
1500.000000 96.474 -157.7282
1510.869618 96.515 -157.7488
1521.818002 96.556 -157.7666
1532.845723 96.597 -157.7856
1543.953355 96.637 -157.8140
1555.141477 96.676 -157.8307
1566.410674 96.714 -157.8473
1577.761531 96.752 -157.8571
1589.194642 96.790 -157.8639
1600.710601 96.826 -157.8728
1612.310010 96.862 -157.8836
1623.993473 96.897 -157.8985
1635.761599 96.932 -157.9148
1647.615002 96.967 -157.9315
1659.554299 97.002 -157.9343
1671.580114 97.038 -157.9378
1683.693072 97.073 -157.9298
1695.893807 97.109 -157.9231
1708.182952 97.145 -157.9129
1720.561150 97.182 -157.8997
1733.029045 97.219 -157.8773
1745.587288 97.259 -157.8519
1758.236533 97.301 -157.8281
1770.977440 97.345 -157.8036
1783.810673 97.390 -157.7780
1796.736900 97.438 -157.7650
1809.756796 97.489 -157.7563
1822.871040 97.542 -157.7719
1836.080315 97.597 -157.8007
1849.385310 97.653 -157.8703
1862.786718 97.709 -157.9610
1876.285239 97.762 -158.0890
1889.881575 97.812 -158.2210
1903.576436 97.858 -158.3717
1917.370535 97.901 -158.5258
1931.264593 97.939 -158.6792
1945.259332 97.974 -158.8290
1959.355483 98.008 -158.9592
1973.553781 98.040 -159.0709
1987.854965 98.072 -159.1710
2002.259781 98.105 -159.2572
2016.768981 98.139 -159.3227
2031.383320 98.176 -159.3673
2046.103561 98.217 -159.3936
2060.930471 98.263 -159.4211
2075.864823 98.314 -159.4531
2090.907395 98.370 -159.4786
2106.058972 98.430 -159.5509
2121.320344 98.494 -159.6355
2136.692305 98.560 -159.7774
2152.175658 98.627 -159.9695
2167.771210 98.693 -160.2268
2183.479774 98.756 -160.5107
2199.302169 98.815 -160.8372
2215.239219 98.868 -161.1847
2231.291755 98.916 -161.5514
2247.460615 98.957 -161.9342
2263.746641 98.993 -162.3192
2280.150683 99.022 -162.7057
2296.673595 99.045 -163.0805
2313.316238 99.063 -163.4518
2330.079481 99.076 -163.7986
2346.964198 99.086 -164.1294
2363.971268 99.093 -164.4358
2381.101578 99.097 -164.7023
2398.356022 99.100 -164.9444
2415.735498 99.101 -165.1487
2433.240913 99.104 -165.3150
2450.873180 99.109 -165.4546
2468.633217 99.119 -165.5664
2486.521951 99.134 -165.6566
2504.540314 99.155 -165.7348
2522.689246 99.184 -165.8096
2540.969692 99.218 -165.8936
2559.382606 99.258 -166.0098
2577.928947 99.300 -166.1565
2596.609683 99.342 -166.3524
2615.425787 99.383 -166.5953
2634.378241 99.420 -166.8808
2653.468031 99.453 -167.1915
2672.696154 99.480 -167.5030
2692.063613 99.502 -167.7954
2711.571415 99.520 -168.0832
2731.220579 99.534 -168.3401
2751.012130 99.549 -168.5630
2770.947098 99.564 -168.7575
2791.026522 99.583 -168.9353
2811.251451 99.605 -169.1164
2831.622938 99.630 -169.2972
2852.142045 99.659 -169.4899
2872.809842 99.690 -169.7165
2893.627406 99.723 -169.9722
2914.595823 99.755 -170.2688
2935.716186 99.785 -170.5877
2956.989596 99.810 -170.9361
2978.417161 99.830 -171.2955
3000.000000 99.845 -171.6464
3021.739237 99.854 -171.9628
3043.636005 99.860 -172.2756
3065.691446 99.863 -172.5673
3087.906710 99.865 -172.8243
3110.282955 99.868 -173.0639
3132.821347 99.873 -173.2831
3155.523062 99.880 -173.4781
3178.389283 99.890 -173.6815
3201.421202 99.903 -173.8928
3224.620020 99.920 -174.1291
3247.986946 99.938 -174.4005
3271.523198 99.956 -174.7080
3295.230004 99.972 -175.0473
3319.108599 99.985 -175.4178
3343.160228 99.994 -175.8093
3367.386145 99.999 -176.2134
3391.787613 99.999 -176.6277
3416.365904 99.996 -177.0439
3441.122300 99.990 -177.4465
3466.058091 99.981 -177.8476
3491.174576 99.970 -178.2448
3516.473066 99.958 -178.6333
3541.954880 99.945 -179.0268
3567.621345 99.930 -179.4122
3593.473800 99.916 -179.7803
3619.513592 99.902 179.8582
3645.742080 99.888 179.4969
3672.160630 99.873 179.1334
3698.770620 99.858 178.7605
3725.573436 99.842 178.3792
3752.570477 99.826 177.9754
3779.763150 99.809 177.5538
3807.152872 99.791 177.1171
3834.741071 99.770 176.6604
3862.529185 99.747 176.2000
3890.518664 99.720 175.7247
3918.710966 99.688 175.2269
3947.107561 99.653 174.7336
3975.709929 99.616 174.2293
4004.519563 99.576 173.7356
4033.537962 99.535 173.2416
4062.766641 99.491 172.7433
4092.207123 99.442 172.2597
4121.860942 99.390 171.7813
4151.729646 99.334 171.3023
4181.814790 99.274 170.8372
4212.117944 99.212 170.3839
4242.640687 99.147 169.9455
4273.384610 99.078 169.5225
4304.351317 99.006 169.1183
4335.542421 98.932 168.7249
4366.959549 98.857 168.3496
4398.604338 98.779 167.9830
4430.478438 98.698 167.6230
4462.583511 98.615 167.2766
4494.921231 98.528 166.9341
4527.493283 98.438 166.6143
4560.301365 98.344 166.2858
4593.347189 98.246 165.9698
4626.632476 98.144 165.6835
4660.158962 98.039 165.4089
4693.928395 97.930 165.1649
4727.942535 97.817 164.9404
4762.203156 97.701 164.7439
4796.712043 97.583 164.5835
4831.470996 97.461 164.4519
4866.481826 97.336 164.3476
4901.746360 97.208 164.2417
4937.266434 97.075 164.1810
4973.043902 96.932 164.1187
5009.080628 96.776 164.0681
5045.378492 96.602 164.0604
5081.939384 96.406 164.1305
5118.765212 96.187 164.3811
5155.857894 95.959 164.9576
5193.219366 95.757 165.9487
5230.851574 95.617 167.1717
5268.756481 95.545 168.2579
5306.936062 95.508 168.9762
5345.392309 95.467 169.3511
5384.127225 95.398 169.5630
5423.142830 95.300 169.7708
5462.441159 95.183 170.0591
5502.024259 95.058 170.4454
5541.894195 94.930 170.9313
5582.053045 94.805 171.4964
5622.502902 94.683 172.1127
5663.245876 94.565 172.7948
5704.284090 94.452 173.5392
5745.619684 94.345 174.2913
5787.254813 94.244 175.0968
5829.191647 94.148 175.9266
5871.432373 94.057 176.8016
5913.979192 93.973 177.7139
5956.834323 93.895 178.6401
6000.000000 93.824 179.5850
6043.478473 93.760 -179.4113
6087.272010 93.704 -178.4029
6131.382892 93.656 -177.3632
6175.813420 93.617 -176.3090
6220.565910 93.587 -175.2321
6265.642695 93.570 -174.1339
6311.046124 93.566 -173.0303
6356.778566 93.576 -171.9100
6402.842404 93.601 -170.7756
6449.240040 93.637 -169.6163
6495.973891 93.684 -168.4689
6543.046396 93.742 -167.2978
6590.460007 93.813 -166.1283
6638.217197 93.896 -164.9559
6686.320456 93.993 -163.7862
6734.772290 94.105 -162.6179
6783.575226 94.232 -161.4583
6832.731809 94.375 -160.3185
6882.244600 94.535 -159.2048
6932.116181 94.714 -158.1308
6982.349153 94.912 -157.0865
7032.946133 95.131 -156.1125
7083.909760 95.370 -155.1797
7135.242690 95.633 -154.3506
7186.947600 95.919 -153.6223
7239.027185 96.231 -153.0108
7291.484160 96.569 -152.5376
7344.321260 96.934 -152.2558
7397.541239 97.325 -152.1860
7451.146872 97.744 -152.3759
7505.140954 98.188 -152.8705
7559.526299 98.657 -153.7406
7614.305743 99.143 -155.0732
7669.482141 99.636 -156.9044
7725.058371 100.121 -159.3197
7781.037328 100.580 -162.3788
7837.421932 100.986 -166.1044
7894.215122 101.312 -170.4357
7951.419859 101.531 -175.2848
8009.039125 101.616 179.4962
8067.075924 101.552 174.0867
8125.533282 101.339 168.7517
8184.414245 100.986 163.7151
8243.721885 100.512 159.1627
8303.459292 99.941 155.2025
8363.629581 99.301 151.9213
8424.235888 98.619 149.3451
8485.281374 97.915 147.4275
8546.769221 97.207 146.1377
8608.702634 96.510 145.3761
8671.084842 95.835 145.0874
8733.919097 95.189 145.2130
8797.208675 94.573 145.6656
8860.956876 93.988 146.4285
8925.167022 93.436 147.4171
8989.842461 92.917 148.6257
9054.986566 92.430 150.0073
9120.602731 91.973 151.5337
9186.694378 91.546 153.1794
9253.264952 91.146 154.9449
9320.317925 90.771 156.7796
9387.856790 90.420 158.7065
9455.885071 90.093 160.6825
9524.406312 89.788 162.7387
9593.424086 89.506 164.8362
9662.941992 89.245 166.9913
9732.963653 89.006 169.1736
9803.492719 88.788 171.4377
9874.532869 88.592 173.7301
9946.087805 88.421 176.0631
10018.161257 88.277 178.4391
10090.756983 88.164 -179.1492
10163.878768 88.079 -176.7140
10237.530423 88.021 -174.2691
10311.715789 87.989 -171.7989
10386.438732 87.983 -169.3294
10461.703149 88.006 -166.8553
10537.512962 88.058 -164.3913
10613.872125 88.143 -161.9691
10690.784618 88.262 -159.6170
10768.254450 88.415 -157.3259
10846.285661 88.603 -155.1790
10924.882318 88.825 -153.1581
11004.048518 89.079 -151.3067
11083.788390 89.364 -149.6383
11164.106090 89.679 -148.2174
11245.005805 90.024 -147.0651
11326.491752 90.396 -146.2196
11408.568180 90.790 -145.7229
11491.239368 91.200 -145.6443
11574.509626 91.619 -146.0443
11658.383294 92.035 -146.9319
11742.864745 92.432 -148.3809
11827.958384 92.792 -150.4069
11913.668646 93.092 -152.9824
12000.000000 93.311 -156.0088
12086.956947 93.430 -159.3855
12174.544019 93.434 -162.9205
12262.765784 93.320 -166.4392
12351.626840 93.088 -169.7769
12441.131819 92.753 -172.7381
12531.285389 92.331 -175.1980
12622.092249 91.844 -177.0737
12713.557132 91.316 -178.3260
12805.684808 90.769 -178.9323
12898.480079 90.223 -178.9207
12991.947783 89.690 -178.3678
13086.092792 89.183 -177.3304
13180.920015 88.710 -175.8112
13276.434395 88.280 -173.9039
13372.640911 87.897 -171.6215
13469.544580 87.566 -169.0378
13567.150452 87.289 -166.1521
13665.463617 87.074 -163.0287
13764.489200 86.927 -159.6590
13864.232362 86.857 -156.0862
13964.698305 86.876 -152.3457
14065.892266 87.000 -148.4785
14167.819519 87.254 -144.5118
14270.485380 87.673 -140.6921
14373.895200 88.279 -137.4045
14478.054370 89.059 -135.1938
14582.968320 89.967 -134.5885
14688.642520 90.912 -136.0659
14795.082478 91.727 -139.9399
14902.293745 92.166 -145.6949
15010.281908 92.015 -150.8253
15119.052599 91.405 -150.5246
15228.611486 91.113 -143.2068
15338.964283 91.731 -136.7368
15450.116741 92.862 -136.2198
15562.074656 93.957 -140.2318
15674.843864 94.785 -146.7535
15788.430244 95.286 -154.4531
15902.839718 95.463 -162.4845
16018.078250 95.357 -170.1302
16134.151848 95.035 -176.8796
16251.066563 94.578 177.5998
16368.828491 94.071 173.3613
16487.443769 93.589 170.3301
16606.918584 93.197 168.2384
16727.259161 92.944 166.7190
16848.471777 92.862 165.3409
16970.562748 92.962 163.6097
17093.538442 93.225 160.9893
17217.405268 93.591 156.8954
17342.169684 93.953 150.9143
17467.838194 94.171 142.9752
17594.417350 94.101 133.4700
17721.913751 93.637 123.2603
17850.334044 92.747 113.5002
17979.684923 91.471 105.1350
18109.973131 89.910 98.8209
18241.205462 88.197 94.7549
18373.388756 86.471 92.8708
18506.529905 84.862 92.8235
18640.635849 83.469 94.1197
18775.713581 82.347 96.2484
18911.770141 81.497 98.8145
19048.812624 80.870 101.4754
19186.848172 80.386 103.9539
19325.883983 79.967 106.1174
19465.927305 79.552 107.8134
19606.985439 79.106 108.9277
19749.065738 78.609 109.4066
19892.175609 78.041 109.1463
20036.322514 77.367 108.2550
20181.513966 76.545 106.8362
20327.757536 75.538 105.1724
20475.060846 74.320 103.6846
20623.431577 72.880 102.8581
20772.877464 71.224 103.2399
20923.406297 69.373 105.3817
21075.025924 67.366 109.7630
21227.744250 65.263 116.9698
21381.569235 63.169 128.0508
21536.508900 61.306 144.8116
21692.571321 60.109 168.8099
21849.764635 60.012 -165.0917
22008.097037 60.832 -146.6747
22167.576780 61.914 -137.7226
22328.212180 62.757 -135.2828
22490.011609 63.134 -136.5553
22652.983504 62.982 -139.7560
22817.136361 62.318 -143.7166
22982.478737 61.194 -147.8661
23149.019252 59.659 -152.0012
23316.766588 57.746 -156.1252
23485.729490 55.483 -160.3974
23655.916767 52.937 -165.9923
23827.337292 50.318 -178.6524
24000.000000 48.340 144.4881
