* Measurement data measured by REW V5.30.9
* Source: Headset (Odo By VECLAN.COM), MICROPHONE (Master Volume), L, volume: 0.250
* Format: 512k Log Swept Sine, 1 sweep at -12.0 dBFS with no timing reference
* Dated: 09 30, 24 2:41:42 PM
* REW Settings:
*  C-weighting compensation: Off
*  Target level: 75.0 dB
* Note: ; 
* Measurement: sm4 odo R
* Smoothing: None
* Frequency Step: 1/48 octave
* Start Frequency: 1.000 Hz
*
* Freq(Hz)	SPL(dB)	Phase(degrees)
1.000000	71.822	-87.3475
1.015000	72.194	-88.1318
1.030000	72.557	-88.9051
1.044000	72.889	-89.6218
1.060000	73.257	-90.4406
1.075000	73.590	-91.2137
1.090000	73.911	-91.9976
1.106000	74.239	-92.8442
1.120000	74.523	-93.5546
1.138000	74.883	-94.4171
1.150000	75.121	-94.9621
1.172000	75.550	-95.9032
1.180000	75.704	-96.2279
1.206000	76.197	-97.2242
1.220000	76.456	-97.7262
1.241000	76.837	-98.4390
1.250000	76.997	-98.7310
1.265000	77.259	-99.2015
1.280000	77.516	-99.6538
1.315000	78.089	-100.6507
1.320000	78.168	-100.7877
1.340000	78.476	-101.3252
1.360000	78.771	-101.8502
1.380000	79.053	-102.3679
1.400000	79.320	-102.8838
1.430000	79.691	-103.6656
1.450000	79.919	-104.1999
1.475000	80.179	-104.8867
1.500000	80.404	-105.5555
1.525000	80.594	-106.1979
1.550000	80.755	-106.8162
1.575000	80.890	-107.4127
1.600000	81.002	-107.9897
1.625000	81.096	-108.5494
1.650000	81.175	-109.0942
1.675000	81.243	-109.6263
1.700000	81.303	-110.1481
1.725000	81.361	-110.6618
1.750000	81.419	-111.1696
1.775000	81.482	-111.6739
1.800000	81.552	-112.1770
1.825000	81.635	-112.6811
1.850000	81.727	-113.1844
1.875000	81.818	-113.6785
1.900000	81.906	-114.1635
1.925000	81.993	-114.6400
1.950000	82.077	-115.1086
1.975000	82.159	-115.5699
2.000000	82.239	-116.0244
2.030000	82.333	-116.5616
2.060000	82.425	-117.0909
2.090000	82.515	-117.6132
2.120000	82.603	-118.1295
2.140000	82.661	-118.4709
2.180000	82.775	-119.1482
2.200000	82.831	-119.4847
2.240000	82.940	-120.1483
2.270000	83.020	-120.6366
2.300000	83.097	-121.1175
2.330000	83.172	-121.5916
2.360000	83.245	-122.0594
2.400000	83.340	-122.6744
2.430000	83.409	-123.1298
2.470000	83.500	-123.7303
2.500000	83.566	-124.1763
2.540000	83.653	-124.7664
2.580000	83.738	-125.3520
2.620000	83.821	-125.9306
2.650000	83.881	-126.3597
2.690000	83.959	-126.9253
2.720000	84.016	-127.3446
2.760000	84.090	-127.8973
2.800000	84.162	-128.4427
2.850000	84.249	-129.1143
2.900000	84.334	-129.7747
2.950000	84.415	-130.4239
3.000000	84.493	-131.0609
3.040000	84.552	-131.5619
3.070000	84.596	-131.9328
3.110000	84.652	-132.4212
3.150000	84.706	-132.9029
3.200000	84.773	-133.4960
3.250000	84.837	-134.0798
3.300000	84.900	-134.6548
3.350000	84.961	-135.2190
3.400000	85.020	-135.7716
3.450000	85.077	-136.3141
3.500000	85.132	-136.8477
3.550000	85.185	-137.3739
3.600000	85.237	-137.8940
3.650000	85.288	-138.4094
3.700000	85.338	-138.9198
3.750000	85.387	-139.4223
3.820000	85.452	-140.1142
3.870000	85.497	-140.6015
3.950000	85.567	-141.3719
4.000000	85.610	-141.8491
4.060000	85.659	-142.4183
4.120000	85.707	-142.9812
4.180000	85.754	-143.5379
4.250000	85.806	-144.1807
4.310000	85.849	-144.7270
4.370000	85.890	-145.2697
4.440000	85.937	-145.8991
4.500000	85.975	-146.4349
4.550000	86.005	-146.8783
4.620000	86.046	-147.4941
4.680000	86.079	-148.0169
4.750000	86.116	-148.6204
4.820000	86.152	-149.2178
4.870000	86.176	-149.6415
4.940000	86.207	-150.2293
5.000000	86.233	-150.7268
5.080000	86.266	-151.3795
5.150000	86.293	-151.9389
5.220000	86.317	-152.4888
5.300000	86.344	-153.1058
5.380000	86.368	-153.7102
5.450000	86.388	-154.2285
5.520000	86.408	-154.7363
5.600000	86.428	-155.3038
5.700000	86.452	-155.9949
5.800000	86.474	-156.6668
5.900000	86.495	-157.3206
6.000000	86.516	-157.9535
6.080000	86.532	-158.4469
6.150000	86.545	-158.8712
6.220000	86.559	-159.2901
6.300000	86.575	-159.7610
6.400000	86.594	-160.3360
6.500000	86.614	-160.9007
6.600000	86.633	-161.4602
6.700000	86.652	-162.0137
6.800000	86.671	-162.5602
6.900000	86.690	-163.1025
7.000000	86.709	-163.6434
7.100000	86.727	-164.1828
7.200000	86.744	-164.7188
7.300000	86.760	-165.2495
7.400000	86.774	-165.7749
7.500000	86.787	-166.2967
7.620000	86.801	-166.9128
7.750000	86.813	-167.5628
7.880000	86.823	-168.1981
8.000000	86.831	-168.7660
8.120000	86.837	-169.3095
8.250000	86.841	-169.8725
8.380000	86.845	-170.4122
8.500000	86.850	-170.8908
8.620000	86.856	-171.3484
8.750000	86.863	-171.8288
8.850000	86.869	-172.1911
9.000000	86.879	-172.7174
9.120000	86.888	-173.1326
9.250000	86.900	-173.5827
9.380000	86.913	-174.0296
9.500000	86.925	-174.4443
9.620000	86.937	-174.8640
9.750000	86.950	-175.3222
9.880000	86.957	-175.7848
10.000000	86.954	-176.2212
10.150000	86.940	-176.7721
10.300000	86.921	-177.3014
10.440000	86.896	-177.7771
10.600000	86.863	-178.2919
10.750000	86.830	-178.7283
10.900000	86.796	-179.1348
11.060000	86.764	-179.5808
11.200000	86.739	-179.9818
11.380000	86.708	179.5158
11.500000	86.688	179.1985
11.720000	86.651	178.6240
11.800000	86.638	178.4117
12.060000	86.594	177.7091
12.200000	86.568	177.2980
12.410000	86.528	176.6583
12.500000	86.513	176.3968
12.650000	86.490	175.9721
12.800000	86.466	175.5658
13.150000	86.402	174.7020
13.200000	86.393	174.5915
13.400000	86.358	174.1834
13.600000	86.327	173.8317
13.800000	86.303	173.5491
14.000000	86.290	173.2554
14.300000	86.292	172.7615
14.500000	86.303	172.3674
14.750000	86.318	171.7910
15.000000	86.328	171.1158
15.250000	86.328	170.3217
15.500000	86.311	169.5178
15.750000	86.280	168.7542
16.000000	86.239	168.0744
16.250000	86.201	167.4684
16.500000	86.168	166.9262
16.750000	86.144	166.4346
17.000000	86.126	165.9173
17.250000	86.111	165.3610
17.500000	86.092	164.7553
17.750000	86.062	164.1594
18.000000	86.022	163.5978
18.250000	85.976	163.0960
18.500000	85.931	162.7007
18.750000	85.894	162.3809
19.000000	85.869	162.1060
19.250000	85.857	161.7717
19.500000	85.848	161.3620
19.750000	85.833	160.8673
20.000000	85.800	160.3214
20.299999	85.732	159.7244
20.600000	85.642	159.3290
20.900000	85.551	159.2442
21.200001	85.494	159.4365
21.400000	85.490	159.6091
21.799999	85.556	159.7696
22.000000	85.612	159.6209
22.400000	85.718	158.7069
22.700001	85.747	157.6299
23.000000	85.706	156.4791
23.299999	85.604	155.5231
23.600000	85.470	154.9542
24.000000	85.307	154.8714
24.299999	85.245	155.1136
24.700001	85.262	155.3773
25.000000	85.322	155.2359
25.400000	85.399	154.4638
25.799999	85.412	153.2762
26.200001	85.343	152.0959
26.500000	85.254	151.4325
26.900000	85.129	150.9519
27.200001	85.056	150.8133
27.600000	85.002	150.7133
28.000000	84.981	150.4959
28.500000	84.959	149.9839
29.000000	84.917	149.4200
29.500000	84.872	148.9361
30.000000	84.841	148.4464
30.400000	84.819	147.9590
30.700001	84.795	147.5638
31.100000	84.754	147.0776
31.500000	84.714	146.6751
32.000000	84.688	146.1968
32.500000	84.678	145.5284
33.000000	84.643	144.6991
33.500000	84.573	143.9832
34.000000	84.513	143.5174
34.500000	84.491	143.0215
35.000000	84.470	142.2576
35.500000	84.395	141.4318
36.000000	84.286	140.9868
36.500000	84.216	140.9413
37.000000	84.216	140.8002
37.500000	84.223	140.2301
38.200001	84.144	139.2862
38.700001	84.070	138.9811
39.500000	84.046	138.4798
40.000000	84.027	137.7507
40.599998	83.941	136.8646
41.200001	83.850	136.3713
41.799999	83.811	135.8897
42.500000	83.763	134.9508
43.099998	83.681	134.2435
43.700001	83.621	133.7799
44.400002	83.593	133.0634
45.000000	83.539	132.2439
45.500000	83.465	131.7021
46.200001	83.368	131.2880
46.799999	83.317	131.0137
47.500000	83.271	130.6006
48.200001	83.227	130.0701
48.700001	83.185	129.6047
49.400002	83.097	128.9718
50.000000	83.017	128.6025
50.799999	82.952	128.1607
51.500000	82.912	127.5354
52.200001	82.851	126.8100
53.000000	82.772	126.0731
53.799999	82.698	125.4016
54.500000	82.635	124.9067
55.200001	82.587	124.4935
56.000000	82.541	123.9330
57.000000	82.450	123.2818
58.000000	82.386	122.8155
59.000000	82.301	121.8541
60.000000	82.121	121.2268
60.799999	82.035	121.0670
61.500000	81.996	120.6292
62.200001	81.922	119.9840
63.000000	81.799	119.6053
64.000000	81.768	119.6782
65.000000	81.805	118.5890
66.000000	81.625	118.0043
67.000000	81.716	118.3756
68.000000	81.699	115.8757
69.000000	81.233	115.7871
70.000000	81.275	117.4249
71.000000	81.322	116.2587
72.000000	81.250	115.8519
73.000000	81.236	114.5598
74.000000	81.035	114.0897
75.000000	81.118	114.0381
76.199997	80.998	112.0565
77.500000	80.885	112.6291
78.800003	80.917	111.1033
80.000000	80.730	110.5204
81.199997	80.678	110.1108
82.500000	80.576	109.1295
83.800003	80.404	108.7969
85.000000	80.420	108.6053
86.199997	80.312	107.3052
87.500000	80.177	107.5087
88.500000	80.217	106.8303
90.000000	80.030	105.8687
91.199997	80.008	105.2512
92.500000	79.784	104.6638
93.800003	79.800	104.8387
95.000000	79.714	103.9493
96.199997	79.662	103.3855
97.500000	79.478	102.7515
98.800003	79.469	102.7079
100.000000	79.405	101.9942
101.500000	79.369	101.5114
103.000000	79.291	100.6945
104.400002	79.108	100.5845
106.000000	79.119	100.5327
107.500000	78.985	99.4391
109.000000	78.820	99.0378
110.599998	78.804	98.5299
112.000000	78.737	97.5455
113.800003	78.658	96.4904
115.000000	78.551	96.3388
117.199997	78.522	95.9346
118.000000	78.460	95.8641
120.599998	78.418	95.2855
122.000000	78.331	94.5963
124.099998	78.165	93.7273
125.000000	78.082	93.3125
126.500000	78.055	93.4490
128.000000	78.044	92.6175
131.500000	77.831	92.8575
132.000000	77.842	92.5713
134.000000	77.706	91.3576
136.000000	77.567	90.7349
138.000000	77.529	89.6469
140.000000	77.389	89.7168
143.000000	77.378	89.5428
145.000000	77.328	88.4723
147.500000	77.189	88.0607
150.000000	77.076	87.5214
152.500000	77.023	87.0144
155.000000	76.925	86.4137
157.500000	76.881	86.0640
160.000000	76.772	85.6714
162.500000	76.653	85.1125
165.000000	76.546	84.5738
167.500000	76.491	84.0103
170.000000	76.386	83.5161
172.500000	76.299	83.1649
175.000000	76.210	82.7922
177.500000	76.146	82.1503
180.000000	76.057	81.9036
182.500000	75.961	81.4033
185.000000	75.893	80.9922
187.500000	75.798	80.6018
190.000000	75.713	80.3317
192.500000	75.640	79.9865
195.000000	75.560	79.6053
197.500000	75.473	79.3284
200.000000	75.409	79.0229
203.000000	75.325	78.7454
206.000000	75.256	78.4892
209.000000	75.178	78.3122
212.000000	75.129	78.0853
214.000000	75.093	78.2026
218.000000	75.046	78.1998
220.000000	75.014	78.3432
224.000000	75.055	78.3819
227.000000	75.097	78.2205
230.000000	75.127	77.3940
233.000000	75.151	76.8406
236.000000	75.136	76.1760
240.000000	75.172	75.7701
243.000000	75.082	74.9046
247.000000	74.998	74.1187
250.000000	74.960	73.8521
254.000000	74.911	73.4287
258.000000	74.863	72.9639
262.000000	74.810	72.5417
265.000000	74.752	72.4479
269.000000	74.751	71.8345
272.000000	74.734	71.3826
276.000000	74.677	70.8956
280.000000	74.650	70.6083
285.000000	74.600	70.1238
290.000000	74.553	69.7563
295.000000	74.513	69.3659
300.000000	74.479	68.9550
304.000000	74.443	68.6348
307.000000	74.426	68.4180
311.000000	74.403	68.1106
315.000000	74.365	67.8250
320.000000	74.330	67.4608
325.000000	74.317	67.0693
330.000000	74.301	66.7869
335.000000	74.273	66.4247
340.000000	74.258	66.1766
345.000000	74.248	65.8580
350.000000	74.227	65.5931
355.000000	74.216	65.2522
360.000000	74.177	65.1578
365.000000	74.182	64.7097
370.000000	74.172	64.4939
375.000000	74.158	64.3432
382.000000	74.128	64.0344
387.000000	74.141	63.6202
395.000000	74.126	63.3236
400.000000	74.116	63.1631
406.000000	74.124	62.9479
412.000000	74.094	62.5930
418.000000	74.103	62.4384
425.000000	74.088	62.2353
431.000000	74.073	62.0474
437.000000	74.064	61.9805
444.000000	74.074	61.9339
450.000000	74.105	62.0181
455.000000	74.122	61.7536
462.000000	74.184	61.4676
468.000000	74.196	61.1866
475.000000	74.203	60.8214
482.000000	74.197	60.5000
487.000000	74.202	60.2872
494.000000	74.204	60.0768
500.000000	74.221	59.8949
508.000000	74.207	59.6320
515.000000	74.215	59.4684
522.000000	74.218	59.3894
530.000000	74.224	59.1670
538.000000	74.228	59.0210
545.000000	74.236	58.9601
552.000000	74.235	58.8421
560.000000	74.246	58.7254
570.000000	74.255	58.5589
580.000000	74.268	58.4111
590.000000	74.279	58.3517
600.000000	74.289	58.3177
608.000000	74.307	58.2703
615.000000	74.317	58.1722
622.000000	74.315	58.1547
630.000000	74.332	58.1758
640.000000	74.353	58.1361
650.000000	74.367	58.1030
660.000000	74.390	58.1495
670.000000	74.405	58.1843
680.000000	74.420	58.1611
690.000000	74.441	58.2593
700.000000	74.458	58.3369
710.000000	74.483	58.3847
720.000000	74.515	58.5346
730.000000	74.528	58.6360
740.000000	74.557	58.7621
750.000000	74.582	58.9302
762.000000	74.620	59.1130
775.000000	74.657	59.2958
788.000000	74.691	59.5275
800.000000	74.733	59.7954
812.000000	74.766	59.9552
825.000000	74.808	60.2608
838.000000	74.869	60.5421
850.000000	74.921	60.7488
862.000000	74.976	61.0148
875.000000	75.035	61.3268
885.000000	75.089	61.5897
900.000000	75.168	61.9258
912.000000	75.228	62.1817
925.000000	75.303	62.4740
938.000000	75.384	62.7741
950.000000	75.460	63.0153
962.000000	75.538	63.2885
975.000000	75.630	63.5511
988.000000	75.716	63.7394
1000.000000	75.799	63.9290
1015.000000	75.919	64.1478
1030.000000	76.028	64.3038
1044.000000	76.136	64.4919
1060.000000	76.255	64.6528
1075.000000	76.376	64.7081
1090.000000	76.485	64.7519
1106.000000	76.613	64.8386
1120.000000	76.721	64.8022
1138.000000	76.855	64.7871
1150.000000	76.938	64.7221
1172.000000	77.094	64.5710
1180.000000	77.146	64.5536
1206.000000	77.317	64.3576
1220.000000	77.412	64.2380
1241.000000	77.543	64.0316
1250.000000	77.596	63.9416
1265.000000	77.685	63.8343
1280.000000	77.779	63.6544
1315.000000	77.965	63.2227
1320.000000	77.998	63.1520
1340.000000	78.103	62.9520
1360.000000	78.203	62.7718
1380.000000	78.297	62.5617
1400.000000	78.394	62.3976
1430.000000	78.528	62.0962
1450.000000	78.617	61.9471
1475.000000	78.728	61.7643
1500.000000	78.837	61.5679
1525.000000	78.946	61.4138
1550.000000	79.045	61.2898
1575.000000	79.148	61.0758
1600.000000	79.253	60.9704
1625.000000	79.358	60.8368
1650.000000	79.461	60.6986
1675.000000	79.565	60.5895
1700.000000	79.666	60.4859
1725.000000	79.783	60.3609
1750.000000	79.895	60.2624
1775.000000	80.000	60.1100
1800.000000	80.120	59.9737
1825.000000	80.238	59.8297
1850.000000	80.356	59.6458
1875.000000	80.474	59.4562
1900.000000	80.589	59.2796
1925.000000	80.718	58.9872
1950.000000	80.841	58.7482
1975.000000	80.956	58.4680
2000.000000	81.076	58.2148
2030.000000	81.235	57.7791
2060.000000	81.386	57.3452
2090.000000	81.538	56.8591
2120.000000	81.691	56.3077
2140.000000	81.789	55.9232
2180.000000	81.977	55.1776
2200.000000	82.073	54.6791
2240.000000	82.252	53.8225
2270.000000	82.384	53.1117
2300.000000	82.499	52.4151
2330.000000	82.620	51.7157
2360.000000	82.740	51.0536
2400.000000	82.892	50.1669
2430.000000	83.026	49.5646
2470.000000	83.231	48.6018
2500.000000	83.408	47.7016
2540.000000	83.638	46.0969
2580.000000	83.825	44.1382
2620.000000	83.951	42.0345
2650.000000	84.017	40.4756
2690.000000	84.060	38.4335
2720.000000	84.074	36.9438
2760.000000	84.061	35.0721
2800.000000	84.024	33.3473
2850.000000	83.947	31.4680
2900.000000	83.878	29.8265
2950.000000	83.822	28.3453
3000.000000	83.778	26.8390
3040.000000	83.742	25.5519
3070.000000	83.702	24.5396
3110.000000	83.633	23.1995
3150.000000	83.539	21.9129
3200.000000	83.380	20.5211
3250.000000	83.212	19.2596
3300.000000	83.038	18.1952
3350.000000	82.853	17.3550
3400.000000	82.684	16.6111
3450.000000	82.510	16.0552
3500.000000	82.349	15.6382
3550.000000	82.201	15.3456
3600.000000	82.060	15.1454
3650.000000	81.928	15.0598
3700.000000	81.821	14.9920
3750.000000	81.719	15.0439
3820.000000	81.594	15.0920
3870.000000	81.517	15.1957
3950.000000	81.424	15.4352
4000.000000	81.380	15.5469
4060.000000	81.351	15.6746
4120.000000	81.331	15.8176
4180.000000	81.326	15.9082
4250.000000	81.322	16.0619
4310.000000	81.323	16.2358
4370.000000	81.349	16.3821
4440.000000	81.395	16.4117
4500.000000	81.438	16.3842
4550.000000	81.475	16.2962
4620.000000	81.532	16.1239
4680.000000	81.573	15.8239
4750.000000	81.621	15.4449
4820.000000	81.660	14.9746
4870.000000	81.680	14.5697
4940.000000	81.694	13.9648
5000.000000	81.700	13.3676
5080.000000	81.637	12.6340
5150.000000	81.558	11.9242
5220.000000	81.462	11.3036
5300.000000	81.335	10.5466
5380.000000	81.185	9.9511
5450.000000	81.036	9.5364
5520.000000	80.881	9.3019
5600.000000	80.701	9.0591
5700.000000	80.473	9.0424
5800.000000	80.262	9.1482
5900.000000	80.051	9.6373
6000.000000	79.869	10.2347
6080.000000	79.751	10.7612
6150.000000	79.670	11.3526
6220.000000	79.616	11.8855
6300.000000	79.550	12.4819
6400.000000	79.581	13.0947
6500.000000	79.648	13.6964
6600.000000	79.739	13.9875
6700.000000	79.862	14.1287
6800.000000	80.010	13.9905
6900.000000	80.171	13.5670
7000.000000	80.342	12.8422
7100.000000	80.520	11.8956
7200.000000	80.712	10.5758
7300.000000	80.907	9.0006
7400.000000	81.088	7.0842
7500.000000	81.265	4.8441
7620.000000	81.455	1.6322
7750.000000	81.618	-2.4501
7880.000000	81.698	-7.0852
8000.000000	81.652	-11.7794
8120.000000	81.418	-16.5808
8250.000000	81.008	-21.6171
8380.000000	80.463	-26.0347
8500.000000	79.875	-29.3856
8620.000000	79.232	-31.9138
8750.000000	78.519	-33.7621
8850.000000	77.985	-34.6090
9000.000000	77.202	-34.9223
9120.000000	76.608	-34.4280
9250.000000	76.020	-33.2187
9380.000000	75.522	-31.4426
9500.000000	75.170	-29.5099
9620.000000	74.866	-27.9237
9750.000000	74.519	-26.0746
9880.000000	74.178	-23.8011
10000.000000	73.876	-21.4164
10150.000000	73.619	-17.8895
10300.000000	73.443	-13.9843
10440.000000	73.417	-9.7128
10600.000000	73.528	-5.0415
10750.000000	73.800	-0.8727
10900.000000	74.215	2.6503
11060.000000	74.839	5.3187
11200.000000	75.489	6.2497
11380.000000	76.354	4.9019
11500.000000	76.842	2.0549
11720.000000	77.269	-6.3019
11800.000000	77.177	-9.8365
12060.000000	76.119	-19.1096
12200.000000	75.238	-21.7431
12410.000000	73.931	-22.4355
12500.000000	73.407	-21.7625
12650.000000	72.622	-19.6583
12800.000000	71.998	-16.6880
13150.000000	71.149	-7.5299
13200.000000	71.107	-6.0578
13400.000000	71.140	-0.2552
13600.000000	71.528	5.1572
13800.000000	72.216	9.4081
14000.000000	73.057	11.5980
14300.000000	74.359	11.6870
14500.000000	75.162	10.3708
14750.000000	76.169	6.4932
15000.000000	76.860	-0.7289
15250.000000	76.840	-10.5092
15500.000000	75.823	-19.5881
15750.000000	73.979	-23.9510
16000.000000	71.955	-20.6232
16250.000000	70.874	-12.3391
16500.000000	70.468	-4.5590
16750.000000	70.347	1.2105
17000.000000	70.354	4.6567
17250.000000	70.328	5.6886
17500.000000	70.135	3.4700
17750.000000	69.432	-1.7863
18000.000000	67.979	-7.2571
18250.000000	65.890	-9.3284
18500.000000	64.220	-4.9915
18750.000000	63.649	-4.0853
19000.000000	62.602	-8.0945
19250.000000	61.238	-9.3857
19500.000000	60.093	-8.3882
19750.000000	59.215	-4.0142
