* Measurement data measured by REW V5.31.3
* Source: Headset (Odo By VECLAN.COM), MICROPHONE (Master Volume), L, volume: 0.720. Timing signal peak level -13.4 dBFS, measurement signal peak level -12.9 dBFS
* Format: 2M Log Swept Sine, 1 sweep at -20.4 dBFS using an acoustic timing reference
* Dated: 11 17, 24 11:03:52 AM
* REW Settings:
*  C-weighting compensation: Off
*  Target level: 85.0 dB
* Note: ; Delay -0.0678 ms (-23 mm, -0.91 in) using estimated IR delay relative to Acoustic reference played from SPEAKER L with no timing offset
* Measurement: Truthear Zero L
* Smoothing: 1/24 octave
* Frequency Step: 96 ppo
* Start Frequency: 0.36621094 Hz
*
* Freq(Hz) SPL(dB) Phase(degrees)
0.366211 71.497 -35.4178
0.368865 71.516 -35.5499
0.371538 71.543 -35.7246
0.374230 71.573 -35.9194
0.376942 71.604 -36.1243
0.379673 71.637 -36.3356
0.382424 71.669 -36.5522
0.385196 71.702 -36.7735
0.387987 71.735 -36.9997
0.390798 71.768 -37.2306
0.393630 71.802 -37.4662
0.396483 71.835 -37.7065
0.399356 71.869 -37.9516
0.402250 71.904 -38.2013
0.405165 71.938 -38.4557
0.408101 71.973 -38.7148
0.411058 72.008 -38.9785
0.414037 72.043 -39.2468
0.417037 72.079 -39.5198
0.420059 72.114 -39.7972
0.423103 72.150 -40.0793
0.426169 72.187 -40.3658
0.429257 72.223 -40.6567
0.432368 72.260 -40.9521
0.435501 72.297 -41.2518
0.438656 72.334 -41.5559
0.441835 72.372 -41.8643
0.445037 72.410 -42.1768
0.448262 72.448 -42.4936
0.451510 72.486 -42.8144
0.454782 72.525 -43.1394
0.458077 72.564 -43.4683
0.461397 72.603 -43.8011
0.464740 72.643 -44.1378
0.468108 72.683 -44.4783
0.471500 72.723 -44.8225
0.474917 72.763 -45.1704
0.478358 72.804 -45.5219
0.481825 72.845 -45.8768
0.485316 72.886 -46.2351
0.488833 72.928 -46.5968
0.492375 72.970 -46.9618
0.495943 73.012 -47.3299
0.499537 73.054 -47.7010
0.503157 73.097 -48.0752
0.506803 73.140 -48.4523
0.510475 73.184 -48.8322
0.514175 73.228 -49.2148
0.517900 73.272 -49.6001
0.521653 73.316 -49.9879
0.525434 73.361 -50.3782
0.529241 73.406 -50.7708
0.533076 73.451 -51.1656
0.536939 73.497 -51.5627
0.540830 73.543 -51.9618
0.544749 73.589 -52.3629
0.548696 73.636 -52.7659
0.552673 73.683 -53.1707
0.556677 73.730 -53.5772
0.560711 73.778 -53.9853
0.564774 73.826 -54.3950
0.568867 73.874 -54.7841
0.572989 73.923 -55.1650
0.577141 73.972 -55.5469
0.581324 74.022 -55.9297
0.585536 74.072 -56.3134
0.589779 74.122 -56.6980
0.594053 74.172 -57.0832
0.598358 74.223 -57.4690
0.602694 74.275 -57.8555
0.607061 74.326 -58.2424
0.611460 74.378 -58.6297
0.615891 74.431 -59.0173
0.620354 74.483 -59.4053
0.624849 74.537 -59.7935
0.629377 74.590 -60.1818
0.633938 74.644 -60.5702
0.638532 74.698 -60.9587
0.643159 74.753 -61.3472
0.647819 74.808 -61.7356
0.652514 74.864 -62.1240
0.657242 74.920 -62.5122
0.662005 74.976 -62.9003
0.666802 75.033 -63.2882
0.671634 75.090 -63.6758
0.676501 75.148 -64.0632
0.681403 75.206 -64.4504
0.686341 75.264 -64.8372
0.691314 75.323 -65.2238
0.696324 75.382 -65.6101
0.701370 75.442 -65.9961
0.706452 75.502 -66.3818
0.711571 75.562 -66.7672
0.716728 75.623 -67.1523
0.721921 75.684 -67.5373
0.727153 75.745 -67.9224
0.732422 75.803 -68.3081
0.737729 75.859 -68.6952
0.743075 75.913 -69.0847
0.748460 75.967 -69.4769
0.753883 76.020 -69.8719
0.759346 76.073 -70.2697
0.764849 76.126 -70.6701
0.770391 76.179 -70.9690
0.775974 76.232 -71.2421
0.781597 76.286 -71.5165
0.787261 76.339 -71.7922
0.792966 76.392 -72.0689
0.798712 76.446 -72.3467
0.804500 76.499 -72.6252
0.810329 76.553 -72.9045
0.816201 76.606 -73.1843
0.822116 76.660 -73.4646
0.828073 76.714 -73.7451
0.834074 76.767 -74.0259
0.840118 76.821 -74.3067
0.846206 76.875 -74.5875
0.852338 76.928 -74.8680
0.858514 76.982 -75.1482
0.864735 77.036 -75.4280
0.871001 77.089 -75.7071
0.877313 77.143 -75.9856
0.883670 77.196 -76.2633
0.890074 77.250 -76.5400
0.896524 77.304 -76.8157
0.903020 77.357 -77.0902
0.909564 77.411 -77.3634
0.916155 77.464 -77.6352
0.922794 77.518 -77.9055
0.929481 77.571 -78.1742
0.936216 77.624 -78.4412
0.943000 77.677 -78.7064
0.949834 77.731 -78.9697
0.956717 77.784 -79.2309
0.963649 77.837 -79.4900
0.970632 77.890 -79.7288
0.977666 77.942 -79.9558
0.984750 77.995 -80.1802
0.991886 78.048 -80.4020
0.999074 78.100 -80.6210
1.006314 78.153 -80.8373
1.013606 78.205 -81.0506
1.020951 78.257 -81.2609
1.028349 78.309 -81.4682
1.035801 78.361 -81.6725
1.043307 78.412 -81.8735
1.050867 78.464 -82.0713
1.058482 78.515 -82.2658
1.066152 78.566 -82.4569
1.073878 78.617 -82.6447
1.081660 78.668 -82.8291
1.089498 78.718 -83.0103
1.097393 78.769 -83.1885
1.105345 78.820 -83.3647
1.113355 78.870 -83.5397
1.121423 78.921 -83.7139
1.129549 78.973 -83.8877
1.137734 79.024 -84.0612
1.145979 79.076 -84.2343
1.154283 79.128 -84.4071
1.162647 79.181 -84.5795
1.171072 79.233 -84.7526
1.179558 79.285 -84.9260
1.188106 79.337 -85.0989
1.196715 79.389 -85.2714
1.205387 79.441 -85.4434
1.214122 79.492 -85.6148
1.222920 79.544 -85.7855
1.231782 79.594 -85.9555
1.240708 79.645 -86.1247
1.249699 79.695 -86.2928
1.258754 79.744 -86.4600
1.267876 79.792 -86.6259
1.277063 79.840 -86.7905
1.286318 79.886 -86.9536
1.295639 79.932 -87.1151
1.305027 79.976 -87.2748
1.314484 80.019 -87.4325
1.324009 80.061 -87.5880
1.333604 80.102 -87.7411
1.343268 80.141 -87.8915
1.353002 80.178 -88.0392
1.362806 80.213 -88.1837
1.372681 80.247 -88.3202
1.382628 80.278 -88.4508
1.392647 80.307 -88.5774
1.402739 80.334 -88.6999
1.412904 80.359 -88.8177
1.423142 80.380 -88.9308
1.433455 80.399 -89.0387
1.443843 80.415 -89.1411
1.454305 80.428 -89.2379
1.464844 80.437 -89.3288
1.475459 80.441 -89.4139
1.486150 80.441 -89.4936
1.496920 80.436 -89.5681
1.507767 80.427 -89.6376
1.518693 80.412 -89.7022
1.529698 80.393 -89.7621
1.540783 80.370 -89.8176
1.551948 80.343 -89.8686
1.563194 80.312 -89.9154
1.574521 80.278 -89.9533
1.585931 80.240 -89.9857
1.597423 80.199 -90.0141
1.608999 80.155 -90.0389
1.620658 80.109 -90.0601
1.632402 80.061 -90.0779
1.644232 80.011 -90.0923
1.656146 79.960 -90.1036
1.668147 79.908 -90.1117
1.680235 79.855 -90.1169
1.692411 79.802 -90.1193
1.704675 79.748 -90.1189
1.717028 79.696 -90.1159
1.729470 79.645 -90.1103
1.742003 79.595 -90.1023
1.754626 79.547 -90.0919
1.767341 79.502 -90.0798
1.780147 79.460 -90.0711
1.793047 79.422 -90.0601
1.806040 79.387 -90.0470
1.819128 79.357 -90.0312
1.832310 79.331 -90.0118
1.845587 79.309 -89.9873
1.858961 79.289 -89.9563
1.872432 79.270 -89.9183
1.886001 79.254 -89.8737
1.899667 79.238 -89.8228
1.913433 79.224 -89.7662
1.927299 79.212 -89.7044
1.941265 79.201 -89.6380
1.955332 79.191 -89.5676
1.969501 79.183 -89.4951
1.983773 79.176 -89.4243
1.998148 79.171 -89.3511
2.012627 79.167 -89.2762
2.027212 79.164 -89.1999
2.041902 79.163 -89.1229
2.056698 79.163 -89.0457
2.071602 79.165 -88.9688
2.086614 79.168 -88.8926
2.101734 79.172 -88.8177
2.116964 79.178 -88.7445
2.132304 79.185 -88.6735
2.147756 79.193 -88.6049
2.163320 79.203 -88.5391
2.178996 79.214 -88.4824
2.194786 79.226 -88.4282
2.210690 79.240 -88.3726
2.226710 79.256 -88.3125
2.242845 79.274 -88.2468
2.259098 79.295 -88.1755
2.275468 79.317 -88.0992
2.291957 79.341 -88.0190
2.308566 79.368 -87.9357
2.325295 79.396 -87.8503
2.342145 79.426 -87.7638
2.359117 79.458 -87.6772
2.376212 79.492 -87.5980
2.393431 79.527 -87.5250
2.410775 79.564 -87.4547
2.428244 79.602 -87.3881
2.445840 79.642 -87.3259
2.463564 79.683 -87.2692
2.481416 79.725 -87.2186
2.499397 79.768 -87.1749
2.517509 79.812 -87.1389
2.535752 79.857 -87.1106
2.554127 79.902 -87.0894
2.572635 79.949 -87.0790
2.591277 79.998 -87.0808
2.610055 80.049 -87.0815
2.628968 80.101 -87.0805
2.648019 80.156 -87.0782
2.667208 80.212 -87.0752
2.686535 80.270 -87.0724
2.706003 80.329 -87.0705
2.725612 80.391 -87.0704
2.745363 80.453 -87.0730
2.765257 80.517 -87.0790
2.785295 80.581 -87.1045
2.805478 80.647 -87.1359
2.825808 80.713 -87.1733
2.846285 80.780 -87.2176
2.866910 80.847 -87.2695
2.887685 80.915 -87.3296
2.908611 80.983 -87.3980
2.929688 81.051 -87.4741
2.950917 81.119 -87.5556
2.972301 81.189 -87.6451
2.993839 81.259 -87.7480
3.015534 81.331 -87.8524
3.037386 81.403 -87.9584
3.059396 81.476 -88.0660
3.081565 81.550 -88.1754
3.103896 81.625 -88.2868
3.126388 81.700 -88.4005
3.149043 81.776 -88.5168
3.171862 81.853 -88.6401
3.194847 81.929 -88.7785
3.217998 82.006 -88.9207
3.241317 82.082 -89.0671
3.264805 82.159 -89.2181
3.288463 82.235 -89.3736
3.312293 82.312 -89.5335
3.336295 82.388 -89.6970
3.360471 82.465 -89.8631
3.384822 82.543 -90.0439
3.409350 82.620 -90.2299
3.434056 82.698 -90.4169
3.458940 82.776 -90.6044
3.484005 82.854 -90.7922
3.509252 82.932 -90.9800
3.534681 83.010 -91.1674
3.560295 83.088 -91.3543
3.586094 83.166 -91.5553
3.612081 83.243 -91.7600
3.638255 83.321 -91.9645
3.664620 83.398 -92.1695
3.691175 83.475 -92.3758
3.717923 83.551 -92.5838
3.744864 83.628 -92.7930
3.772001 83.704 -93.0072
3.799335 83.780 -93.2364
3.826866 83.855 -93.4643
3.854597 83.931 -93.6900
3.882529 84.006 -93.9128
3.910664 84.081 -94.1317
3.939002 84.156 -94.3460
3.967546 84.231 -94.5563
3.996296 84.306 -94.7797
4.025255 84.380 -94.9984
4.054423 84.454 -95.2136
4.083804 84.527 -95.4266
4.113396 84.600 -95.6378
4.143204 84.673 -95.8466
4.173227 84.745 -96.0571
4.203468 84.817 -96.2789
4.233928 84.889 -96.4958
4.264609 84.961 -96.7071
4.295512 85.033 -96.9117
4.326639 85.104 -97.1091
4.357992 85.176 -97.2986
4.389572 85.247 -97.4951
4.421380 85.319 -97.6899
4.453419 85.390 -97.8791
4.485691 85.461 -98.0631
4.518196 85.532 -98.2419
4.550936 85.602 -98.4152
4.583914 85.673 -98.5932
4.617131 85.743 -98.7738
4.650589 85.814 -98.9478
4.684289 85.885 -99.1147
4.718233 85.957 -99.2741
4.752424 86.028 -99.4259
4.786862 86.101 -99.5810
4.821549 86.173 -99.7360
4.856488 86.246 -99.8842
4.891680 86.319 -100.0260
4.927127 86.392 -100.1619
4.962831 86.465 -100.2923
4.998794 86.539 -100.4337
5.035017 86.614 -100.5720
5.071503 86.688 -100.7059
5.108253 86.764 -100.8354
5.145270 86.840 -100.9603
5.182555 86.917 -101.0874
5.220110 86.994 -101.2189
5.257937 87.071 -101.3456
5.296038 87.150 -101.4682
5.334415 87.228 -101.5875
5.373071 87.307 -101.7079
5.412006 87.386 -101.8416
5.451224 87.466 -101.9747
5.490725 87.545 -102.1073
5.530514 87.625 -102.2392
5.570590 87.705 -102.3720
5.610957 87.786 -102.5198
5.651616 87.867 -102.6661
5.692570 87.948 -102.8112
5.733821 88.029 -102.9554
5.775370 88.109 -103.1030
5.817221 88.189 -103.2644
5.859375 88.269 -103.4266
5.901834 88.348 -103.5903
5.944602 88.426 -103.7555
5.987679 88.505 -103.9304
6.031068 88.582 -104.1137
6.074771 88.659 -104.2954
6.118792 88.735 -104.4742
6.163131 88.810 -104.6495
6.207792 88.883 -104.8362
6.252776 88.955 -105.0219
6.298086 89.026 -105.2072
6.343725 89.095 -105.3918
6.389694 89.163 -105.5822
6.435996 89.230 -105.7753
6.482634 89.295 -105.9605
6.529610 89.359 -106.1355
6.576926 89.422 -106.3025
6.624585 89.483 -106.4706
6.672590 89.542 -106.6308
6.720942 89.599 -106.7834
6.769645 89.655 -106.9276
6.818700 89.710 -107.0731
6.868111 89.764 -107.2034
6.917881 89.818 -107.3160
6.968010 89.871 -107.4104
7.018504 89.924 -107.5005
7.069362 89.975 -107.5743
7.120590 90.026 -107.6323
7.172189 90.077 -107.6759
7.224161 90.129 -107.7149
7.276511 90.182 -107.7361
7.329239 90.236 -107.7383
7.382350 90.292 -107.7245
7.435845 90.349 -107.7010
7.489729 90.407 -107.6610
7.544002 90.467 -107.6083
7.598669 90.530 -107.5553
7.653732 90.595 -107.5013
7.709194 90.664 -107.4405
7.765058 90.737 -107.3702
7.821327 90.812 -107.3058
7.878004 90.891 -107.2386
7.935091 90.973 -107.1753
7.992592 91.058 -107.1274
8.050510 91.145 -107.0995
8.108847 91.236 -107.0847
8.167607 91.331 -107.0810
8.226793 91.428 -107.1016
8.286408 91.527 -107.1404
8.346454 91.628 -107.2036
8.406936 91.729 -107.3037
8.467856 91.832 -107.4376
8.529218 91.935 -107.5991
8.591024 92.039 -107.7914
8.653278 92.143 -108.0164
8.715983 92.244 -108.2687
8.779143 92.343 -108.5520
8.842760 92.439 -108.8743
8.906839 92.532 -109.2263
8.971381 92.623 -109.6046
9.036392 92.709 -110.0119
9.101873 92.791 -110.4348
9.167829 92.867 -110.8726
9.234263 92.939 -111.3366
9.301178 93.005 -111.8166
9.368578 93.066 -112.3061
9.436467 93.121 -112.8059
9.504847 93.170 -113.2994
9.573723 93.213 -113.7872
9.643099 93.250 -114.2807
9.712976 93.281 -114.7662
9.783361 93.306 -115.2376
9.854255 93.324 -115.6916
9.925663 93.335 -116.1167
9.997588 93.339 -116.5144
10.070035 93.338 -116.9110
10.143007 93.332 -117.2772
10.216507 93.322 -117.6071
10.290540 93.311 -117.8969
10.365109 93.296 -118.1466
10.440219 93.280 -118.3581
10.515873 93.263 -118.5338
10.592076 93.248 -118.6748
10.668830 93.235 -118.7806
10.746141 93.223 -118.8513
10.824012 93.214 -118.8911
10.902447 93.209 -118.9069
10.981451 93.208 -118.9040
11.061027 93.212 -118.9155
11.141180 93.220 -118.9209
11.221913 93.232 -118.9153
11.303232 93.248 -118.9052
11.385140 93.267 -118.8949
11.467641 93.290 -118.8850
11.550741 93.315 -118.8761
11.634442 93.342 -118.8698
11.718750 93.371 -118.8679
11.803669 93.401 -118.8714
11.889203 93.433 -118.8794
11.975357 93.466 -118.8904
12.062136 93.501 -118.9292
12.149543 93.536 -118.9795
12.237583 93.573 -119.0308
12.326262 93.611 -119.0823
12.415583 93.653 -119.1333
12.505552 93.698 -119.1832
12.596172 93.746 -119.2321
12.687449 93.797 -119.2818
12.779387 93.850 -119.3344
12.871992 93.906 -119.3912
12.965268 93.964 -119.4528
13.059220 94.024 -119.5426
13.153852 94.085 -119.6547
13.249170 94.146 -119.7785
13.345179 94.208 -119.9137
13.441884 94.270 -120.0591
13.539289 94.331 -120.2138
13.637401 94.389 -120.3771
13.736223 94.445 -120.5462
13.835761 94.500 -120.7151
13.936021 94.551 -120.8782
14.037007 94.600 -121.0430
14.138725 94.646 -121.2129
14.241180 94.690 -121.3622
14.344377 94.733 -121.4852
14.448323 94.776 -121.5806
14.553021 94.819 -121.6478
14.658478 94.864 -121.6860
14.764700 94.912 -121.6956
14.871691 94.964 -121.6828
14.979457 95.022 -121.6576
15.088005 95.087 -121.6512
15.197339 95.159 -121.6535
15.307465 95.236 -121.6729
15.418389 95.320 -121.7234
15.530117 95.407 -121.8117
15.642655 95.498 -121.9446
15.756008 95.589 -122.1297
15.870182 95.678 -122.3703
15.985184 95.765 -122.6622
16.101019 95.846 -123.0170
16.217694 95.919 -123.4134
16.335214 95.983 -123.8382
16.453586 96.038 -124.2733
16.572815 96.081 -124.7041
16.692909 96.113 -125.1189
16.813872 96.136 -125.4992
16.935713 96.151 -125.8296
17.058436 96.159 -126.1122
17.182048 96.164 -126.3412
17.306556 96.169 -126.5015
17.431967 96.177 -126.5969
17.558286 96.189 -126.6384
17.685521 96.208 -126.6375
17.813677 96.237 -126.6089
17.942762 96.274 -126.5747
18.072783 96.320 -126.5637
18.203746 96.374 -126.5876
18.335658 96.433 -126.6530
18.468526 96.494 -126.7678
18.602356 96.556 -126.9320
18.737156 96.614 -127.1429
18.872934 96.667 -127.3942
19.009695 96.715 -127.6735
19.147447 96.755 -127.9785
19.286197 96.788 -128.2856
19.425953 96.815 -128.5809
19.566721 96.838 -128.8552
19.708510 96.858 -129.1041
19.851326 96.876 -129.3253
19.995177 96.896 -129.5207
20.140070 96.917 -129.7121
20.286013 96.940 -129.8913
20.433014 96.966 -130.0638
20.581080 96.992 -130.2358
20.730219 97.020 -130.4085
20.880439 97.047 -130.5795
21.031747 97.073 -130.7477
21.184152 97.099 -130.9141
21.337661 97.123 -131.0580
21.492282 97.149 -131.1744
21.648024 97.179 -131.2611
21.804895 97.214 -131.3214
21.962902 97.258 -131.3677
22.122054 97.311 -131.4260
22.282360 97.375 -131.5114
22.443827 97.447 -131.6454
22.606464 97.526 -131.8452
22.770280 97.608 -132.1249
22.935283 97.687 -132.4873
23.101481 97.759 -132.9306
23.268884 97.821 -133.4359
23.437500 97.869 -133.9692
23.607338 97.902 -134.4995
23.778406 97.923 -134.9953
23.950714 97.933 -135.4270
24.124271 97.939 -135.7881
24.299086 97.946 -136.0671
24.475167 97.958 -136.2715
24.652524 97.982 -136.4273
24.831166 98.018 -136.5671
25.011103 98.067 -136.7327
25.192344 98.125 -136.9626
25.374898 98.187 -137.2740
25.558775 98.247 -137.6732
25.743984 98.297 -138.1503
25.930536 98.334 -138.6816
26.118439 98.353 -139.2366
26.307704 98.354 -139.7740
26.498341 98.340 -140.2463
26.690359 98.314 -140.6212
26.883768 98.281 -140.8732
27.078579 98.249 -140.9956
27.274801 98.224 -140.9934
27.472446 98.212 -140.8815
27.671522 98.218 -140.6885
27.872042 98.245 -140.4515
28.074014 98.292 -140.2130
28.277450 98.361 -140.0166
28.482360 98.447 -139.8924
28.688755 98.548 -139.8728
28.896645 98.657 -139.9786
29.106042 98.769 -140.2242
29.316957 98.876 -140.6041
29.529400 98.972 -141.0958
29.743382 99.052 -141.6640
29.958915 99.114 -142.2669
30.176009 99.158 -142.8608
30.394677 99.188 -143.4041
30.614929 99.211 -143.8698
30.836778 99.233 -144.2572
31.060234 99.260 -144.5891
31.285309 99.296 -144.9109
31.512015 99.340 -145.2582
31.740364 99.386 -145.6635
31.970368 99.425 -146.1319
32.202039 99.450 -146.6446
32.435388 99.456 -147.1440
32.670428 99.444 -147.5661
32.907171 99.422 -147.8585
33.145630 99.403 -148.0005
33.385817 99.399 -148.0184
33.627745 99.422 -147.9830
33.871425 99.473 -148.0018
34.116871 99.544 -148.1740
34.364096 99.619 -148.5575
34.613113 99.680 -149.1442
34.863934 99.710 -149.8680
35.116572 99.701 -150.6242
35.371041 99.654 -151.2839
35.627354 99.584 -151.7398
35.885525 99.509 -151.9356
36.145566 99.451 -151.8887
36.407492 99.431 -151.6892
36.671316 99.454 -151.4659
36.937051 99.515 -151.3542
37.204712 99.600 -151.4515
37.474313 99.689 -151.7817
37.745867 99.766 -152.3107
38.019389 99.821 -152.9634
38.294893 99.852 -153.6525
38.572394 99.863 -154.2926
38.851905 99.861 -154.8287
39.133442 99.858 -155.2399
39.417019 99.862 -155.5394
39.702651 99.881 -155.7642
39.990353 99.916 -155.9646
40.280140 99.964 -156.1912
40.572026 100.020 -156.4711
40.866028 100.076 -156.8079
41.162160 100.126 -157.1837
41.460438 100.169 -157.5662
41.760877 100.203 -157.9221
42.063494 100.234 -158.2358
42.368303 100.264 -158.5163
42.675322 100.296 -158.7780
42.984565 100.328 -159.0426
43.296048 100.356 -159.3195
43.609789 100.377 -159.5974
43.925804 100.388 -159.8486
44.244108 100.393 -160.0464
44.564719 100.397 -160.1794
44.887654 100.409 -160.2647
45.212928 100.430 -160.3456
45.540560 100.460 -160.4649
45.870565 100.495 -160.6509
46.202962 100.528 -160.9099
46.537768 100.557 -161.2245
46.875000 100.580 -161.5706
47.214676 100.601 -161.9365
47.556813 100.620 -162.3242
47.901429 100.640 -162.7445
48.248542 100.655 -163.2054
48.598171 100.664 -163.6937
48.950334 100.664 -164.1786
49.305048 100.656 -164.6264
49.662333 100.644 -165.0104
50.022206 100.635 -165.3278
50.384688 100.632 -165.5978
50.749796 100.636 -165.8419
51.117550 100.645 -166.0742
51.487969 100.658 -166.2980
51.861072 100.677 -166.5167
52.236879 100.702 -166.7534
52.615409 100.732 -167.0404
52.996681 100.761 -167.3981
53.380717 100.781 -167.8136
53.767536 100.787 -168.2287
54.157158 100.783 -168.5799
54.549603 100.783 -168.8480
54.944892 100.797 -169.0858
55.343045 100.827 -169.3943
55.744084 100.860 -169.8411
56.148028 100.880 -170.4128
56.554900 100.877 -171.0175
56.964720 100.856 -171.5477
57.377510 100.832 -171.9594
57.793291 100.816 -172.2942
58.212085 100.810 -172.6243
58.633914 100.804 -172.9733
59.058799 100.792 -173.2964
59.486764 100.779 -173.5388
59.917829 100.779 -173.7064
60.352019 100.798 -173.8874
60.789354 100.829 -174.1815
61.229859 100.853 -174.6176
61.673556 100.858 -175.1267
62.120468 100.842 -175.5975
62.570618 100.817 -175.9613
63.024031 100.798 -176.2309
63.480729 100.790 -176.4742
63.940736 100.792 -176.7466
64.404077 100.799 -177.0774
64.870776 100.806 -177.4740
65.340856 100.807 -177.9220
65.814343 100.798 -178.3708
66.291261 100.784 -178.7593
66.771635 100.774 -179.0663
67.255489 100.779 -179.3453
67.742850 100.797 -179.6922
68.233743 100.813 179.8402
68.728193 100.811 179.3016
69.226226 100.785 178.8141
69.727867 100.749 178.4725
70.233144 100.718 178.2724
70.742083 100.703 178.1274
71.254709 100.701 177.9490
71.771050 100.701 177.7031
72.291132 100.699 177.4083
72.814984 100.693 177.0977
73.342631 100.687 176.7867
73.874102 100.685 176.4650
74.409424 100.688 176.0982
74.948626 100.693 175.6557
75.491734 100.689 175.1429
76.038779 100.674 174.6228
76.589787 100.650 174.1688
77.144788 100.626 173.8065
77.703811 100.611 173.5025
78.266885 100.604 173.1999
78.834039 100.600 172.8671
79.405303 100.594 172.5163
79.980706 100.582 172.1729
80.560280 100.568 171.8442
81.144053 100.553 171.5119
81.732056 100.532 171.1656
82.324320 100.506 170.8247
82.920876 100.477 170.5098
83.521755 100.449 170.2191
84.126988 100.425 169.9303
84.736607 100.405 169.6378
85.350643 100.392 169.3410
85.969129 100.388 169.0055
86.592097 100.388 168.5945
87.219579 100.381 168.1111
87.851608 100.362 167.6309
88.488217 100.337 167.2279
89.129439 100.314 166.8860
89.775308 100.295 166.5529
90.425856 100.276 166.2035
91.081119 100.253 165.8294
91.741131 100.222 165.4443
92.405925 100.180 165.0829
93.075536 100.135 164.7725
93.750000 100.093 164.4911
94.429351 100.057 164.2039
95.113625 100.025 163.8848
95.802858 99.994 163.5294
96.497085 99.963 163.1590
97.196342 99.932 162.7949
97.900667 99.903 162.4573
98.610096 99.879 162.1468
99.324665 99.860 161.8232
100.044413 99.841 161.4566
100.769376 99.814 161.0709
101.499592 99.776 160.7169
102.235100 99.732 160.4116
102.975938 99.688 160.1258
103.722144 99.642 159.8417
104.473757 99.597 159.5659
105.230817 99.555 159.2890
105.993363 99.519 158.9686
106.761435 99.482 158.5860
107.535072 99.439 158.1859
108.314315 99.391 157.8367
109.099206 99.346 157.5653
109.889783 99.307 157.3421
110.686090 99.274 157.1107
111.488167 99.241 156.8395
112.296056 99.200 156.5418
113.109800 99.150 156.2495
113.929440 99.095 155.9638
114.755020 99.036 155.6812
115.586582 98.974 155.4019
116.424170 98.914 155.1448
117.267827 98.862 154.8955
118.117598 98.819 154.6155
118.973527 98.778 154.2992
119.835658 98.736 153.9860
120.704037 98.694 153.7058
121.578708 98.653 153.4492
122.459718 98.609 153.1922
123.347111 98.560 152.9322
124.240935 98.504 152.6772
125.141236 98.440 152.4294
126.048061 98.368 152.2066
126.961458 98.296 152.0416
127.881473 98.232 151.8965
128.808154 98.176 151.6853
129.741551 98.119 151.3973
130.681712 98.055 151.0935
131.628686 97.985 150.8283
132.582521 97.915 150.6583
133.543269 97.856 150.5585
134.510979 97.810 150.4421
135.485701 97.771 150.2908
136.467486 97.734 150.0885
137.456386 97.689 149.8175
138.452451 97.628 149.6249
139.455735 97.569 149.6300
140.466288 97.529 149.6554
141.484165 97.493 149.5388
142.509418 97.444 149.2980
143.542100 97.373 149.0034
144.582265 97.283 148.7986
145.629968 97.199 148.7184
146.685262 97.131 148.6317
147.748204 97.074 148.4909
148.818849 97.020 148.3315
149.897251 96.967 148.1700
150.983469 96.903 147.9837
152.077557 96.823 147.8164
153.179574 96.727 147.7171
154.289576 96.629 147.7147
155.407622 96.545 147.7449
156.533770 96.475 147.6924
157.668078 96.408 147.5622
158.810606 96.336 147.4607
159.961413 96.260 147.4922
161.120559 96.187 147.6390
162.288105 96.120 147.8039
163.464112 96.056 147.8972
164.648640 95.986 147.8328
165.841752 95.897 147.6082
167.043510 95.782 147.3088
168.253976 95.640 147.0890
169.473213 95.482 147.0604
170.701286 95.325 147.3248
171.938258 95.195 147.9287
173.184194 95.111 148.7934
174.439158 95.065 149.6956
175.703216 95.026 150.6346
176.976434 94.989 151.5506
178.258878 94.933 152.0237
179.550615 94.822 151.9666
180.851713 94.664 151.5979
182.162239 94.500 151.0489
183.482262 94.381 150.5831
184.811850 94.350 150.3034
186.151073 94.384 150.0077
187.500000 94.410 149.8214
188.858702 94.392 150.0661
190.227250 94.345 150.7459
191.605715 94.293 151.5188
192.994169 94.247 152.1954
194.392685 94.215 152.7007
195.801334 94.192 153.0350
197.220191 94.163 153.2584
198.649330 94.121 153.4603
200.088825 94.067 153.6324
201.538751 94.000 153.7486
202.999184 93.926 153.8862
204.470200 93.856 154.0854
205.951875 93.791 154.2822
207.444287 93.721 154.4255
208.947514 93.646 154.5677
210.461634 93.576 154.7893
211.986726 93.528 155.1219
213.522869 93.508 155.4854
215.070144 93.499 155.8081
216.628631 93.479 156.0447
218.198411 93.436 156.2332
219.779567 93.376 156.4376
221.372180 93.319 156.7076
222.976334 93.278 157.0049
224.592112 93.249 157.2655
226.219600 93.220 157.5333
227.858880 93.190 157.8766
229.510039 93.163 158.2654
231.173164 93.141 158.6661
232.848340 93.120 159.0159
234.535655 93.094 159.3142
236.235197 93.066 159.5977
237.947054 93.036 159.8188
239.671317 93.008 160.0573
241.408074 92.989 160.3482
243.157416 92.981 160.6892
244.919435 92.983 161.0493
246.694223 92.986 161.4233
248.481871 92.986 161.8352
250.282473 92.981 162.2545
252.096123 92.965 162.6410
253.922915 92.942 162.9938
255.762945 92.921 163.2528
257.616309 92.900 163.4540
259.483103 92.879 163.7216
261.363424 92.856 164.1156
263.257372 92.830 164.5504
265.165043 92.802 164.9505
267.086538 92.784 165.2508
269.021957 92.784 165.4810
270.971401 92.800 165.6945
272.934972 92.813 165.9221
274.912771 92.806 166.1557
276.904902 92.774 166.3762
278.911469 92.728 166.6063
280.932577 92.683 166.8444
282.968330 92.650 167.1010
285.018835 92.630 167.3318
287.084199 92.622 167.4858
289.164530 92.614 167.5506
291.259935 92.602 167.5786
293.370525 92.586 167.6707
295.496408 92.579 167.9343
297.637697 92.585 168.3315
299.794503 92.593 168.7521
301.966937 92.591 169.1223
304.155114 92.580 169.4169
306.359147 92.566 169.6705
308.579152 92.547 169.9188
310.815244 92.522 170.1643
313.067539 92.495 170.3430
315.336156 92.476 170.4801
317.621211 92.468 170.6982
319.922826 92.472 171.0661
322.241118 92.483 171.4417
324.576210 92.502 171.6882
326.928223 92.528 171.7681
329.297280 92.550 171.7689
331.683504 92.548 171.7133
334.087019 92.507 171.6996
336.507952 92.449 171.8902
338.946427 92.412 172.2586
341.402572 92.407 172.6277
343.876516 92.423 172.9605
346.368387 92.442 173.2029
348.878315 92.447 173.4063
351.406431 92.430 173.7028
353.952867 92.402 174.1064
356.517756 92.386 174.4879
359.101230 92.390 174.5913
361.703426 92.401 174.3898
364.324478 92.405 174.1921
366.964523 92.406 174.2365
369.623699 92.404 174.4676
372.302145 92.387 174.7633
375.000000 92.356 175.0544
377.717405 92.323 175.3054
380.454501 92.305 175.5374
383.211431 92.296 175.7745
385.988339 92.286 176.0237
388.785369 92.269 176.2869
391.602668 92.249 176.5886
394.440383 92.233 176.9258
397.298660 92.227 177.2311
400.177650 92.232 177.4307
403.077502 92.240 177.5460
405.998368 92.246 177.6451
408.940400 92.253 177.7774
411.903750 92.266 177.9443
414.888575 92.275 178.1859
417.895028 92.265 178.5795
420.923268 92.242 179.0261
423.973452 92.219 179.3323
427.045738 92.203 179.5015
430.140287 92.195 179.6558
433.257261 92.191 179.8510
436.396822 92.188 -179.9243
439.559133 92.186 -179.6801
442.744360 92.182 -179.4523
445.952668 92.172 -179.2603
449.184225 92.154 -179.0845
452.439199 92.131 -178.8773
455.717760 92.111 -178.6349
459.020079 92.099 -178.3345
462.346327 92.093 -177.9592
465.696680 92.088 -177.6195
469.071310 92.083 -177.3847
472.470394 92.074 -177.2247
475.894109 92.060 -177.0680
479.342634 92.044 -176.8912
482.816148 92.032 -176.6463
486.314833 92.027 -176.2940
489.838871 92.027 -175.8897
493.388445 92.027 -175.5349
496.963741 92.021 -175.2815
500.564945 92.012 -175.0749
504.192245 92.001 -174.8575
507.845830 91.988 -174.5972
511.525890 91.976 -174.2954
515.232618 91.967 -173.9666
518.966206 91.966 -173.6608
522.726849 91.974 -173.3862
526.514743 91.981 -173.1555
530.330086 91.980 -172.9510
534.173076 91.979 -172.7348
538.043915 91.984 -172.4900
541.942803 91.995 -172.2228
545.869944 92.006 -171.9088
549.825542 92.017 -171.4897
553.809805 92.024 -170.9299
557.822939 92.018 -170.3323
561.865154 91.996 -169.8665
565.936660 91.974 -169.5701
570.037671 91.968 -169.3137
574.168399 91.970 -168.9843
578.329060 91.969 -168.6253
582.519870 91.965 -168.2567
586.741049 91.961 -167.8920
590.992817 91.960 -167.5250
595.275394 91.964 -167.1311
599.589005 91.972 -166.7211
603.933874 91.978 -166.3407
608.310228 91.983 -166.0105
612.718295 91.992 -165.7177
617.158304 92.009 -165.3948
621.630488 92.027 -165.0273
626.135079 92.042 -164.6355
630.672311 92.052 -164.2031
635.242423 92.061 -163.7795
639.845651 92.073 -163.3768
644.482237 92.089 -162.9462
649.152421 92.110 -162.4877
653.856447 92.137 -162.0435
658.594560 92.169 -161.6310
663.367008 92.203 -161.2834
668.174039 92.236 -161.0166
673.015903 92.267 -160.7451
677.892854 92.297 -160.4281
682.805145 92.323 -160.0622
687.753032 92.348 -159.6962
692.736774 92.376 -159.3376
697.756631 92.409 -159.0049
702.812863 92.445 -158.6959
707.905735 92.484 -158.3836
713.035511 92.523 -158.0837
718.202461 92.559 -157.7916
723.406852 92.593 -157.5203
728.648956 92.626 -157.2280
733.929047 92.660 -156.9387
739.247399 92.693 -156.6474
744.604290 92.726 -156.3867
750.000000 92.759 -156.1331
755.434809 92.790 -155.8790
760.909001 92.821 -155.6109
766.422861 92.852 -155.3174
771.976677 92.882 -155.0129
777.570739 92.912 -154.7093
783.205337 92.943 -154.4650
788.880766 92.979 -154.2936
794.597321 93.017 -154.1547
800.355301 93.054 -153.9743
806.155005 93.090 -153.7588
811.996736 93.123 -153.5213
817.880799 93.152 -153.2787
823.807501 93.177 -153.0245
829.777150 93.203 -152.7782
835.790057 93.230 -152.5291
841.846536 93.257 -152.2871
847.946903 93.283 -152.0379
854.091476 93.310 -151.7891
860.280575 93.337 -151.5348
866.514523 93.365 -151.2634
872.793644 93.393 -150.9852
879.118267 93.421 -150.7023
885.488720 93.450 -150.4234
891.905336 93.478 -150.1397
898.368450 93.508 -149.8559
904.878398 93.538 -149.5643
911.435520 93.571 -149.2905
918.040157 93.606 -149.0126
924.692655 93.642 -148.7189
931.393359 93.679 -148.4096
938.142619 93.717 -148.0889
944.940787 93.757 -147.7792
951.788218 93.798 -147.4878
958.685268 93.841 -147.1954
965.632296 93.885 -146.9005
972.629666 93.930 -146.6074
979.677741 93.977 -146.3206
986.776890 94.025 -146.0326
993.927482 94.074 -145.7504
1001.129891 94.125 -145.4786
1008.384491 94.176 -145.2028
1015.691660 94.229 -144.9422
1023.051781 94.282 -144.6802
1030.465236 94.336 -144.4375
1037.932411 94.391 -144.2011
1045.453698 94.448 -143.9615
1053.029486 94.505 -143.7374
1060.660172 94.562 -143.5166
1068.346153 94.619 -143.3125
1076.087829 94.677 -143.1180
1083.885605 94.736 -142.9272
1091.739887 94.795 -142.7472
1099.651084 94.854 -142.5837
1107.619609 94.912 -142.4271
1115.645878 94.971 -142.2731
1123.730308 95.029 -142.1219
1131.873321 95.087 -141.9867
1140.075341 95.146 -141.8673
1148.336797 95.206 -141.7502
1156.658119 95.265 -141.6383
1165.039741 95.323 -141.5467
1173.482099 95.382 -141.4442
1181.985634 95.439 -141.3570
1190.550789 95.495 -141.2718
1199.178011 95.550 -141.1995
1207.867749 95.605 -141.1180
1216.620457 95.659 -141.0518
1225.436590 95.713 -140.9888
1234.316609 95.765 -140.9326
1243.260976 95.816 -140.8802
1252.270157 95.868 -140.8356
1261.344623 95.920 -140.7927
1270.484846 95.972 -140.7592
1279.691303 96.024 -140.7228
1288.964474 96.074 -140.6987
1298.304842 96.124 -140.6709
1307.712894 96.171 -140.6379
1317.189120 96.218 -140.6132
1326.734016 96.263 -140.5793
1336.348077 96.306 -140.5640
1346.031806 96.348 -140.5415
1355.785708 96.389 -140.5079
1365.610290 96.430 -140.4859
1375.506065 96.470 -140.4602
1385.473549 96.508 -140.4239
1395.513261 96.545 -140.3761
1405.625726 96.580 -140.3214
1415.811469 96.614 -140.2546
1426.071023 96.647 -140.1775
1436.404921 96.679 -140.0901
1446.813703 96.711 -139.9856
1457.297912 96.745 -139.8706
1467.858093 96.780 -139.7371
1478.494798 96.815 -139.5983
1489.208581 96.851 -139.4449
1500.000000 96.889 -139.2682
1510.869618 96.927 -139.1019
1521.818002 96.967 -138.9196
1532.845723 97.009 -138.7294
1543.953355 97.052 -138.5397
1555.141477 97.097 -138.3320
1566.410674 97.142 -138.1249
1577.761531 97.190 -137.9162
1589.194642 97.240 -137.7085
1600.710601 97.291 -137.5059
1612.310010 97.344 -137.3035
1623.993473 97.398 -137.0993
1635.761599 97.454 -136.8948
1647.615002 97.511 -136.6978
1659.554299 97.570 -136.5009
1671.580114 97.631 -136.3144
1683.693072 97.693 -136.1186
1695.893807 97.756 -135.9308
1708.182952 97.820 -135.7498
1720.561150 97.885 -135.5721
1733.029045 97.952 -135.3890
1745.587288 98.020 -135.2096
1758.236533 98.090 -135.0449
1770.977440 98.162 -134.8937
1783.810673 98.236 -134.7468
1796.736900 98.312 -134.6132
1809.756796 98.389 -134.4844
1822.871040 98.467 -134.3731
1836.080315 98.545 -134.2579
1849.385310 98.624 -134.1614
1862.786718 98.703 -134.0665
1876.285239 98.783 -133.9927
1889.881575 98.862 -133.9090
1903.576436 98.941 -133.8341
1917.370535 99.020 -133.7623
1931.264593 99.100 -133.6993
1945.259332 99.181 -133.6486
1959.355483 99.263 -133.5995
1973.553781 99.347 -133.5565
1987.854965 99.433 -133.5274
2002.259781 99.521 -133.5107
2016.768981 99.611 -133.5017
2031.383320 99.702 -133.4996
2046.103561 99.794 -133.5027
2060.930471 99.887 -133.5244
2075.864823 99.980 -133.5606
2090.907395 100.073 -133.5923
2106.058972 100.167 -133.6628
2121.320344 100.260 -133.7227
2136.692305 100.354 -133.8028
2152.175658 100.449 -133.8904
2167.771210 100.545 -134.0062
2183.479774 100.643 -134.1212
2199.302169 100.742 -134.2597
2215.239219 100.841 -134.4091
2231.291755 100.939 -134.5759
2247.460615 101.037 -134.7630
2263.746641 101.135 -134.9617
2280.150683 101.231 -135.1756
2296.673595 101.327 -135.3986
2313.316238 101.423 -135.6467
2330.079481 101.518 -135.9048
2346.964198 101.613 -136.1880
2363.971268 101.707 -136.4942
2381.101578 101.801 -136.8101
2398.356022 101.894 -137.1509
2415.735498 101.987 -137.5049
2433.240913 102.078 -137.8703
2450.873180 102.167 -138.2564
2468.633217 102.255 -138.6586
2486.521951 102.341 -139.0748
2504.540314 102.427 -139.5061
2522.689246 102.511 -139.9537
2540.969692 102.594 -140.4186
2559.382606 102.674 -140.9073
2577.928947 102.752 -141.3990
2596.609683 102.827 -141.9038
2615.425787 102.899 -142.4258
2634.378241 102.969 -142.9675
2653.468031 103.036 -143.5168
2672.696154 103.100 -144.0672
2692.063613 103.160 -144.6156
2711.571415 103.217 -145.1847
2731.220579 103.270 -145.7556
2751.012130 103.319 -146.3267
2770.947098 103.364 -146.8967
2791.026522 103.405 -147.4635
2811.251451 103.443 -148.0280
2831.622938 103.477 -148.5686
2852.142045 103.510 -149.0804
2872.809842 103.542 -149.5774
2893.627406 103.575 -150.0617
2914.595823 103.609 -150.5530
2935.716186 103.644 -151.0377
2956.989596 103.679 -151.5345
2978.417161 103.715 -152.0482
3000.000000 103.749 -152.5833
3021.739237 103.782 -153.1282
3043.636005 103.810 -153.7152
3065.691446 103.834 -154.3228
3087.906710 103.851 -154.9316
3110.282955 103.861 -155.5492
3132.821347 103.863 -156.1564
3155.523062 103.858 -156.7315
3178.389283 103.845 -157.2939
3201.421202 103.827 -157.8282
3224.620020 103.805 -158.3377
3247.986946 103.779 -158.8235
3271.523198 103.750 -159.2827
3295.230004 103.718 -159.7123
3319.108599 103.685 -160.1150
3343.160228 103.652 -160.4846
3367.386145 103.617 -160.8209
3391.787613 103.583 -161.1319
3416.365904 103.548 -161.4182
3441.122300 103.514 -161.6678
3466.058091 103.480 -161.8922
3491.174576 103.449 -162.0892
3516.473066 103.420 -162.2579
3541.954880 103.393 -162.4181
3567.621345 103.370 -162.5622
3593.473800 103.350 -162.6862
3619.513592 103.333 -162.8031
3645.742080 103.320 -162.9226
3672.160630 103.310 -163.0490
3698.770620 103.302 -163.1845
3725.573436 103.295 -163.3175
3752.570477 103.289 -163.4551
3779.763150 103.285 -163.5928
3807.152872 103.281 -163.7318
3834.741071 103.278 -163.8787
3862.529185 103.274 -164.0159
3890.518664 103.271 -164.1509
3918.710966 103.269 -164.2918
3947.107561 103.269 -164.4208
3975.709929 103.271 -164.5637
4004.519563 103.275 -164.7010
4033.537962 103.283 -164.8401
4062.766641 103.294 -164.9860
4092.207123 103.307 -165.1225
4121.860942 103.323 -165.2597
4151.729646 103.340 -165.4078
4181.814790 103.360 -165.5616
4212.117944 103.383 -165.7301
4242.640687 103.407 -165.9112
4273.384610 103.433 -166.1062
4304.351317 103.460 -166.3166
4335.542421 103.488 -166.5514
4366.959549 103.517 -166.8009
4398.604338 103.547 -167.0719
4430.478438 103.578 -167.3657
4462.583511 103.609 -167.6780
4494.921231 103.639 -168.0225
4527.493283 103.667 -168.3792
4560.301365 103.695 -168.7789
4593.347189 103.720 -169.2041
4626.632476 103.743 -169.6408
4660.158962 103.765 -170.1045
4693.928395 103.786 -170.5782
4727.942535 103.805 -171.0803
4762.203156 103.821 -171.6083
4796.712043 103.834 -172.1520
4831.470996 103.844 -172.7130
4866.481826 103.851 -173.2904
4901.746360 103.854 -173.9140
4937.266434 103.851 -174.5382
4973.043902 103.840 -175.2079
5009.080628 103.820 -175.9049
5045.378492 103.789 -176.6046
5081.939384 103.748 -177.3164
5118.765212 103.698 -178.0420
5155.857894 103.639 -178.7823
5193.219366 103.571 -179.5161
5230.851574 103.495 179.7598
5268.756481 103.412 179.0453
5306.936062 103.322 178.3480
5345.392309 103.224 177.6716
5384.127225 103.119 177.0317
5423.142830 103.008 176.4308
5462.441159 102.891 175.8702
5502.024259 102.767 175.3427
5541.894195 102.636 174.8564
5582.053045 102.501 174.4142
5622.502902 102.360 174.0117
5663.245876 102.217 173.6777
5704.284090 102.071 173.4172
5745.619684 101.923 173.1842
5787.254813 101.775 173.0265
5829.191647 101.626 172.9118
5871.432373 101.478 172.8620
5913.979192 101.331 172.8773
5956.834323 101.188 172.9409
6000.000000 101.047 173.0544
6043.478473 100.909 173.2532
6087.272010 100.775 173.4795
6131.382892 100.646 173.7578
6175.813420 100.524 174.0704
6220.565910 100.408 174.4274
6265.642695 100.302 174.8278
6311.046124 100.207 175.2533
6356.778566 100.124 175.7096
6402.842404 100.052 176.1902
6449.240040 99.989 176.7095
6495.973891 99.934 177.2349
6543.046396 99.887 177.8024
6590.460007 99.848 178.3903
6638.217197 99.820 179.0098
6686.320456 99.801 179.6609
6734.772290 99.794 -179.6543
6783.575226 99.800 -178.9467
6832.731809 99.818 -178.2304
6882.244600 99.851 -177.5105
6932.116181 99.899 -176.7963
6982.349153 99.964 -176.0799
7032.946133 100.048 -175.4102
7083.909760 100.150 -174.7602
7135.242690 100.271 -174.1888
7186.947600 100.412 -173.6941
7239.027185 100.574 -173.2946
7291.484160 100.754 -173.0041
7344.321260 100.952 -172.8572
7397.541239 101.167 -172.8590
7451.146872 101.398 -173.0418
7505.140954 101.643 -173.4206
7559.526299 101.899 -174.0230
7614.305743 102.163 -174.8973
7669.482141 102.430 -176.0504
7725.058371 102.694 -177.5338
7781.037328 102.946 -179.3642
7837.421932 103.178 178.4486
7894.215122 103.375 175.9177
7951.419859 103.523 173.0450
8009.039125 103.609 169.8803
8067.075924 103.622 166.4709
8125.533282 103.553 162.9118
8184.414245 103.401 159.2902
8243.721885 103.167 155.7343
8303.459292 102.853 152.3446
8363.629581 102.469 149.2196
8424.235888 102.022 146.4169
8485.281374 101.525 143.9636
8546.769221 100.989 141.9246
8608.702634 100.427 140.2836
8671.084842 99.848 139.0444
8733.919097 99.263 138.2000
8797.208675 98.679 137.7059
8860.956876 98.103 137.5714
8925.167022 97.540 137.7189
8989.842461 96.990 138.1416
9054.986566 96.456 138.7976
9120.602731 95.941 139.6692
9186.694378 95.445 140.7321
9253.264952 94.968 141.9816
9320.317925 94.511 143.3661
9387.856790 94.075 144.9084
9455.885071 93.661 146.5608
9524.406312 93.269 148.3477
9593.424086 92.897 150.2235
9662.941992 92.545 152.1957
9732.963653 92.214 154.2236
9803.492719 91.904 156.3536
9874.532869 91.616 158.5289
9946.087805 91.352 160.7586
10018.161257 91.115 163.0406
10090.756983 90.906 165.3649
10163.878768 90.723 167.7198
10237.530423 90.562 170.0894
10311.715789 90.424 172.4814
10386.438732 90.307 174.8625
10461.703149 90.213 177.2340
10537.512962 90.142 179.5822
10613.872125 90.094 -178.1205
10690.784618 90.066 -175.9009
10768.254450 90.056 -173.7471
10846.285661 90.063 -171.7343
10924.882318 90.083 -169.8400
11004.048518 90.111 -168.1075
11083.788390 90.137 -166.5376
11164.106090 90.155 -165.1517
11245.005805 90.153 -163.8972
11326.491752 90.123 -162.7035
11408.568180 90.055 -161.4525
11491.239368 89.952 -160.0140
11574.509626 89.823 -158.2451
11658.383294 89.690 -155.9862
11742.864745 89.583 -153.2090
11827.958384 89.534 -149.9198
11913.668646 89.571 -146.2117
12000.000000 89.717 -142.2423
12086.956947 89.986 -138.2463
12174.544019 90.383 -134.3876
12262.765784 90.908 -130.8369
12351.626840 91.562 -127.7683
12441.131819 92.344 -125.3337
12531.285389 93.249 -123.7585
12622.092249 94.264 -123.3210
12713.557132 95.356 -124.3574
12805.684808 96.462 -127.1783
12898.480079 97.489 -131.9968
12991.947783 98.325 -138.7948
13086.092792 98.857 -147.1393
13180.920015 99.014 -156.2027
13276.434395 98.787 -165.1281
13372.640911 98.236 -173.0990
13469.544580 97.454 -179.6696
13567.150452 96.533 175.3663
13665.463617 95.551 171.9485
13764.489200 94.573 169.9644
13864.232362 93.646 169.1550
13964.698305 92.796 169.2331
14065.892266 92.034 169.9440
14167.819519 91.359 171.1398
14270.485380 90.764 172.6360
14373.895200 90.240 174.3900
14478.054370 89.778 176.3482
14582.968320 89.374 178.4584
14688.642520 89.022 -179.2841
14795.082478 88.721 -176.9029
14902.293745 88.472 -174.4088
15010.281908 88.279 -171.7739
15119.052599 88.146 -169.0764
15228.611486 88.077 -166.3135
15338.964283 88.077 -163.5489
15450.116741 88.150 -160.8324
15562.074656 88.301 -158.2316
15674.843864 88.539 -155.8469
15788.430244 88.874 -153.7285
15902.839718 89.321 -152.0538
16018.078250 89.893 -151.0062
16134.151848 90.581 -150.8461
16251.066563 91.355 -151.8386
16368.828491 92.158 -154.3084
16487.443769 92.911 -158.4231
16606.918584 93.520 -164.2240
16727.259161 93.886 -171.4928
16848.471777 93.930 -179.6922
16970.562748 93.612 171.9485
17093.538442 92.944 164.2541
17217.405268 91.987 157.8424
17342.169684 90.830 153.0901
17467.838194 89.567 150.0825
17594.417350 88.275 148.6463
17721.913751 87.012 148.4916
17850.334044 85.818 149.3788
17979.684923 84.709 151.0007
18109.973131 83.686 153.1525
18241.205462 82.748 155.6122
18373.388756 81.901 158.2825
18506.529905 81.157 161.0742
18640.635849 80.530 163.8959
18775.713581 80.021 166.6711
18911.770141 79.617 169.3896
19048.812624 79.283 172.0092
19186.848172 78.968 174.4694
19325.883983 78.625 176.7750
19465.927305 78.220 178.8758
19606.985439 77.741 -179.2220
19749.065738 77.198 -177.4523
19892.175609 76.608 -175.8539
20036.322514 75.982 -174.3272
20181.513966 75.328 -172.8771
20327.757536 74.656 -171.4737
20475.060846 73.979 -170.0751
20623.431577 73.303 -168.6266
20772.877464 72.634 -167.0104
20923.406297 71.978 -165.0736
21075.025924 71.344 -162.7025
21227.744250 70.747 -159.7528
21381.569235 70.207 -156.0695
21536.508900 69.743 -151.6658
21692.571321 69.370 -146.5285
21849.764635 69.100 -140.7642
22008.097037 68.946 -134.4234
22167.576780 68.927 -127.6904
22328.212180 69.059 -120.9634
22490.011609 69.337 -114.7591
22652.983504 69.714 -109.8482
22817.136361 70.106 -106.7537
22982.478737 70.416 -105.7002
23149.019252 70.581 -106.5633
23316.766588 70.577 -109.1416
23485.729490 70.404 -113.6609
23655.916767 70.028 -122.0621
23827.337292 69.416 -141.1620
24000.000000 68.833 173.7610
