* Measurement data measured by REW V5.31.3
* Source: Headset (Odo By VECLAN.COM), MICROPHONE (Master Volume), L, volume: 0.720. Timing signal peak level -17.0 dBFS, measurement signal peak level -14.9 dBFS
* Format: 2M Log Swept Sine, 1 sweep at -20.2 dBFS using an acoustic timing reference
* Dated: 11 17, 24 11:12:46 AM
* REW Settings:
*  C-weighting compensation: Off
*  Target level: 85.0 dB
* Note: ; Delay -0.0997 ms (-34 mm, -1.35 in) using estimated IR delay relative to Acoustic reference played from SPEAKER R with no timing offset Clock adjustment: -10.8 ppm
* Measurement: Zero Red R
* Smoothing: 1/24 octave
* Frequency Step: 96 ppo
* Start Frequency: 0.36621094 Hz
*
* Freq(Hz) SPL(dB) Phase(degrees)
0.366211 73.780 107.0950
0.368865 73.786 107.0200
0.371538 73.794 106.9270
0.374230 73.804 106.8235
0.376942 73.814 106.7131
0.379673 73.824 106.5969
0.382424 73.835 106.4753
0.385196 73.845 106.3485
0.387987 73.856 106.2164
0.390798 73.866 106.0791
0.393630 73.877 105.9365
0.396483 73.888 105.7887
0.399356 73.899 105.6357
0.402250 73.909 105.4774
0.405165 73.920 105.3139
0.408101 73.932 105.1451
0.411058 73.943 104.9712
0.414037 73.954 104.7920
0.417037 73.965 104.6077
0.420059 73.977 104.4181
0.423103 73.988 104.2235
0.426169 74.000 104.0237
0.429257 74.011 103.8189
0.432368 74.023 103.6090
0.435501 74.035 103.3942
0.438656 74.047 103.1743
0.441835 74.059 102.9496
0.445037 74.071 102.7200
0.448262 74.083 102.4856
0.451510 74.095 102.2465
0.454782 74.108 102.0027
0.458077 74.120 101.7543
0.461397 74.133 101.5015
0.464740 74.145 101.2441
0.468108 74.158 100.9825
0.471500 74.171 100.7166
0.474917 74.184 100.4465
0.478358 74.197 100.1724
0.481825 74.210 99.8944
0.485316 74.223 99.6126
0.488833 74.236 99.3271
0.492375 74.250 99.0381
0.495943 74.263 98.7456
0.499537 74.277 98.4499
0.503157 74.290 98.1511
0.506803 74.304 97.8494
0.510475 74.318 97.5449
0.514175 74.332 97.2378
0.517900 74.346 96.9283
0.521653 74.360 96.6166
0.525434 74.374 96.3029
0.529241 74.389 95.9874
0.533076 74.403 95.6702
0.536939 74.418 95.3518
0.540830 74.432 95.0322
0.544749 74.447 94.7117
0.548696 74.462 94.3906
0.552673 74.477 94.0691
0.556677 74.492 93.7475
0.560711 74.507 93.4261
0.564774 74.523 93.1052
0.568867 74.538 92.8070
0.572989 74.554 92.5196
0.577141 74.569 92.2337
0.581324 74.585 91.9499
0.585536 74.601 91.6683
0.589779 74.617 91.3894
0.594053 74.633 91.1135
0.598358 74.649 90.8410
0.602694 74.666 90.5723
0.607061 74.682 90.3078
0.611460 74.699 90.0479
0.615891 74.716 89.7930
0.620354 74.732 89.5436
0.624849 74.749 89.3001
0.629377 74.767 89.0630
0.633938 74.784 88.8328
0.638532 74.801 88.6099
0.643159 74.819 88.3949
0.647819 74.836 88.1884
0.652514 74.854 87.9908
0.657242 74.872 87.8028
0.662005 74.890 87.6249
0.666802 74.908 87.4578
0.671634 74.926 87.3021
0.676501 74.944 87.1585
0.681403 74.963 87.0276
0.686341 74.981 86.9102
0.691314 75.000 86.8070
0.696324 75.019 86.7189
0.701370 75.038 86.6465
0.706452 75.057 86.5905
0.711571 75.076 86.5513
0.716728 75.094 86.5276
0.721921 75.107 86.5142
0.727153 75.110 86.4953
0.732422 75.086 86.4372
0.737729 75.019 86.2989
0.743075 74.917 86.1022
0.748460 74.792 85.8710
0.753883 74.649 85.6177
0.759346 74.491 85.3469
0.764849 74.319 85.0602
0.770391 74.133 84.8619
0.775974 73.934 84.6760
0.781597 73.722 84.4750
0.787261 73.498 84.2588
0.792966 73.261 84.0268
0.798712 73.012 83.7790
0.804500 72.751 83.5147
0.810329 72.479 83.2338
0.816201 72.196 82.9357
0.822116 71.902 82.6199
0.828073 71.599 82.2859
0.834074 71.286 81.9331
0.840118 70.965 81.5608
0.846206 70.634 81.1683
0.852338 70.296 80.7548
0.858514 69.951 80.3193
0.864735 69.599 79.8608
0.871001 69.241 79.3781
0.877313 68.878 78.8697
0.883670 68.510 78.3343
0.890074 68.138 77.7700
0.896524 67.764 77.1748
0.903020 67.387 76.5463
0.909564 67.009 75.8818
0.916155 66.630 75.1782
0.922794 66.252 74.4317
0.929481 65.876 73.6380
0.936216 65.502 72.7919
0.943000 65.132 71.8870
0.949834 64.767 70.9160
0.956717 64.408 69.8696
0.963649 64.056 68.7370
0.970632 63.712 67.5224
0.977666 63.378 66.2000
0.984750 63.056 64.7391
0.991886 62.746 63.1123
0.999074 62.450 61.2840
1.006314 62.171 59.2080
1.013606 61.908 56.8231
1.020951 61.665 54.0471
1.028349 61.442 50.7684
1.035801 61.243 46.8343
1.043307 61.068 42.0359
1.050867 60.919 36.0928
1.058482 60.800 28.6504
1.066152 60.711 19.3276
1.073878 60.655 7.8878
1.081660 60.634 -5.4210
1.089498 60.652 -19.5815
1.097393 60.709 -33.0956
1.105345 60.807 -44.7834
1.113355 60.948 -54.2331
1.121423 61.130 -61.6246
1.129549 61.354 -67.3609
1.137734 61.618 -71.8404
1.145979 61.922 -75.3830
1.154283 62.264 -78.2266
1.162647 62.643 -80.5435
1.171072 63.057 -82.4595
1.179558 63.506 -84.0653
1.188106 63.988 -85.4275
1.196715 64.502 -86.5962
1.205387 65.045 -87.6100
1.214122 65.616 -88.4982
1.222920 66.214 -89.2840
1.231782 66.837 -89.9856
1.240708 67.482 -90.6176
1.249699 68.148 -91.1917
1.258754 68.832 -91.7177
1.267876 69.533 -92.2036
1.277063 70.247 -92.6559
1.286318 70.973 -93.0803
1.295639 71.709 -93.4814
1.305027 72.450 -93.8632
1.314484 73.195 -94.2294
1.324009 73.941 -94.5828
1.333604 74.684 -94.9260
1.343268 75.423 -95.2614
1.353002 76.152 -95.5910
1.362806 76.871 -95.9166
1.372681 77.574 -96.2351
1.382628 78.258 -96.5504
1.392647 78.920 -96.8660
1.402739 79.555 -97.1832
1.412904 80.161 -97.5030
1.423142 80.733 -97.8265
1.433455 81.267 -98.1545
1.443843 81.760 -98.4874
1.454305 82.210 -98.8248
1.464844 82.618 -99.1647
1.475459 82.991 -99.5024
1.486150 83.335 -99.8336
1.496920 83.654 -100.1557
1.507767 83.950 -100.4682
1.518693 84.224 -100.7710
1.529698 84.477 -101.0644
1.540783 84.709 -101.3488
1.551948 84.923 -101.6247
1.563194 85.117 -101.8924
1.574521 85.294 -102.1476
1.585931 85.454 -102.3940
1.597423 85.598 -102.6335
1.608999 85.727 -102.8667
1.620658 85.842 -103.0940
1.632402 85.945 -103.3159
1.644232 86.037 -103.5329
1.656146 86.118 -103.7454
1.668147 86.191 -103.9538
1.680235 86.256 -104.1586
1.692411 86.315 -104.3604
1.704675 86.371 -104.5594
1.717028 86.423 -104.7562
1.729470 86.475 -104.9513
1.742003 86.527 -105.1450
1.754626 86.582 -105.3378
1.767341 86.642 -105.5308
1.780147 86.709 -105.7293
1.793047 86.784 -105.9284
1.806040 86.869 -106.1283
1.819128 86.965 -106.3293
1.832310 87.071 -106.5316
1.845587 87.181 -106.7345
1.858961 87.292 -106.9375
1.872432 87.401 -107.1397
1.886001 87.506 -107.3407
1.899667 87.608 -107.5399
1.913433 87.707 -107.7369
1.927299 87.803 -107.9314
1.941265 87.896 -108.1230
1.955332 87.986 -108.3114
1.969501 88.073 -108.4978
1.983773 88.158 -108.6852
1.998148 88.241 -108.8688
2.012627 88.321 -109.0485
2.027212 88.400 -109.2243
2.041902 88.476 -109.3960
2.056698 88.552 -109.5636
2.071602 88.626 -109.7271
2.086614 88.699 -109.8865
2.101734 88.771 -110.0418
2.116964 88.843 -110.1931
2.132304 88.914 -110.3405
2.147756 88.986 -110.4841
2.163320 89.058 -110.6241
2.178996 89.131 -110.7675
2.194786 89.203 -110.9098
2.210690 89.276 -111.0507
2.226710 89.347 -111.1912
2.242845 89.416 -111.3316
2.259098 89.484 -111.4716
2.275468 89.550 -111.6107
2.291957 89.615 -111.7483
2.308566 89.677 -111.8840
2.325295 89.739 -112.0172
2.342145 89.799 -112.1474
2.359117 89.857 -112.2741
2.376212 89.915 -112.4035
2.393431 89.971 -112.5330
2.410775 90.027 -112.6578
2.428244 90.082 -112.7776
2.445840 90.136 -112.8919
2.463564 90.190 -113.0004
2.481416 90.244 -113.1028
2.499397 90.297 -113.1988
2.517509 90.351 -113.2881
2.535752 90.404 -113.3708
2.554127 90.458 -113.4470
2.572635 90.512 -113.5238
2.591277 90.565 -113.6075
2.610055 90.617 -113.6880
2.628968 90.668 -113.7656
2.648019 90.719 -113.8402
2.667208 90.768 -113.9116
2.686535 90.817 -113.9796
2.706003 90.865 -114.0438
2.725612 90.912 -114.1040
2.745363 90.959 -114.1599
2.765257 91.005 -114.2112
2.785295 91.051 -114.2729
2.805478 91.097 -114.3300
2.825808 91.143 -114.3819
2.846285 91.189 -114.4281
2.866910 91.235 -114.4685
2.887685 91.281 -114.5027
2.908611 91.328 -114.5305
2.929688 91.375 -114.5518
2.950917 91.422 -114.5665
2.972301 91.469 -114.5799
2.993839 91.515 -114.5989
3.015534 91.561 -114.6126
3.037386 91.607 -114.6214
3.059396 91.653 -114.6256
3.081565 91.698 -114.6258
3.103896 91.744 -114.6223
3.126388 91.790 -114.6155
3.149043 91.836 -114.6056
3.171862 91.882 -114.5972
3.194847 91.928 -114.5982
3.217998 91.975 -114.5973
3.241317 92.023 -114.5946
3.264805 92.072 -114.5902
3.288463 92.121 -114.5836
3.312293 92.171 -114.5738
3.336295 92.221 -114.5593
3.360471 92.272 -114.5400
3.384822 92.323 -114.5286
3.409350 92.375 -114.5173
3.434056 92.428 -114.5032
3.458940 92.481 -114.4872
3.484005 92.534 -114.4704
3.509252 92.588 -114.4535
3.534681 92.642 -114.4377
3.560295 92.696 -114.4237
3.586094 92.752 -114.4269
3.612081 92.807 -114.4379
3.638255 92.863 -114.4527
3.664620 92.920 -114.4707
3.691175 92.977 -114.4904
3.717923 93.035 -114.5101
3.744864 93.094 -114.5294
3.772001 93.153 -114.5530
3.799335 93.213 -114.5925
3.826866 93.274 -114.6334
3.854597 93.334 -114.6764
3.882529 93.395 -114.7225
3.910664 93.456 -114.7725
3.939002 93.517 -114.8272
3.967546 93.578 -114.8886
3.996296 93.639 -114.9748
4.025255 93.699 -115.0677
4.054423 93.760 -115.1672
4.083804 93.820 -115.2724
4.113396 93.881 -115.3823
4.143204 93.942 -115.4965
4.173227 94.002 -115.6192
4.203468 94.063 -115.7607
4.233928 94.123 -115.9054
4.264609 94.183 -116.0534
4.295512 94.242 -116.2044
4.326639 94.301 -116.3586
4.357992 94.358 -116.5164
4.389572 94.414 -116.6935
4.421380 94.470 -116.8816
4.453419 94.525 -117.0767
4.485691 94.578 -117.2784
4.518196 94.632 -117.4854
4.550936 94.684 -117.6963
4.583914 94.735 -117.9197
4.617131 94.785 -118.1527
4.650589 94.834 -118.3851
4.684289 94.883 -118.6155
4.718233 94.929 -118.8434
4.752424 94.975 -119.0693
4.786862 95.019 -119.3064
4.821549 95.062 -119.5538
4.856488 95.103 -119.8046
4.891680 95.143 -120.0578
4.927127 95.182 -120.3114
4.962831 95.219 -120.5629
4.998794 95.256 -120.8262
5.035017 95.291 -121.0845
5.071503 95.326 -121.3346
5.108253 95.359 -121.5756
5.145270 95.391 -121.8086
5.182555 95.422 -122.0441
5.220110 95.452 -122.2857
5.257937 95.480 -122.5237
5.296038 95.507 -122.7570
5.334415 95.533 -122.9841
5.373071 95.559 -123.2063
5.412006 95.585 -123.4337
5.451224 95.610 -123.6497
5.490725 95.636 -123.8535
5.530514 95.661 -124.0455
5.570590 95.686 -124.2291
5.610957 95.710 -124.4200
5.651616 95.735 -124.6024
5.692570 95.759 -124.7770
5.733821 95.784 -124.9439
5.775370 95.809 -125.1074
5.817221 95.836 -125.2770
5.859375 95.863 -125.4383
5.901834 95.892 -125.5902
5.944602 95.922 -125.7324
5.987679 95.953 -125.8749
6.031068 95.984 -126.0198
6.074771 96.017 -126.1607
6.118792 96.051 -126.3001
6.163131 96.086 -126.4399
6.207792 96.123 -126.5963
6.252776 96.161 -126.7548
6.298086 96.201 -126.9125
6.343725 96.243 -127.0691
6.389694 96.286 -127.2343
6.435996 96.329 -127.4098
6.482634 96.374 -127.5903
6.529610 96.420 -127.7780
6.576926 96.465 -127.9782
6.624585 96.511 -128.1992
6.672590 96.559 -128.4290
6.720942 96.606 -128.6666
6.769645 96.654 -128.9121
6.818700 96.702 -129.1774
6.868111 96.750 -129.4488
6.917881 96.796 -129.7268
6.968010 96.841 -130.0134
7.018504 96.885 -130.3235
7.069362 96.928 -130.6432
7.120590 96.969 -130.9701
7.172189 97.010 -131.3017
7.224161 97.048 -131.6445
7.276511 97.085 -131.9838
7.329239 97.119 -132.3190
7.382350 97.151 -132.6573
7.435845 97.180 -133.0053
7.489729 97.207 -133.3512
7.544002 97.231 -133.6898
7.598669 97.254 -134.0241
7.653732 97.276 -134.3466
7.709194 97.295 -134.6499
7.765058 97.312 -134.9361
7.821327 97.328 -135.2205
7.878004 97.342 -135.4882
7.935091 97.355 -135.7360
7.992592 97.368 -135.9653
8.050510 97.382 -136.1739
8.108847 97.397 -136.3541
8.167607 97.411 -136.5073
8.226793 97.427 -136.6471
8.286408 97.444 -136.7655
8.346454 97.464 -136.8649
8.406936 97.488 -136.9545
8.467856 97.515 -137.0283
8.529218 97.547 -137.0814
8.591024 97.582 -137.1225
8.653278 97.622 -137.1616
8.715983 97.665 -137.2001
8.779143 97.713 -137.2456
8.842760 97.765 -137.3042
8.906839 97.823 -137.3662
8.971381 97.884 -137.4356
9.036392 97.949 -137.5278
9.101873 98.016 -137.6412
9.167829 98.085 -137.7808
9.234263 98.157 -137.9552
9.301178 98.231 -138.1535
9.368578 98.306 -138.3754
9.436467 98.380 -138.6314
9.504847 98.453 -138.9129
9.573723 98.523 -139.2230
9.643099 98.592 -139.5701
9.712976 98.657 -139.9385
9.783361 98.718 -140.3236
9.854255 98.772 -140.7248
9.925663 98.820 -141.1334
9.997588 98.860 -141.5510
10.070035 98.894 -141.9995
10.143007 98.921 -142.4437
10.216507 98.942 -142.8732
10.290540 98.957 -143.2831
10.365109 98.966 -143.6746
10.440219 98.969 -144.0457
10.515873 98.968 -144.3899
10.592076 98.964 -144.6997
10.668830 98.957 -144.9706
10.746141 98.948 -145.2031
10.824012 98.938 -145.3988
10.902447 98.929 -145.5588
10.981451 98.922 -145.6825
11.061027 98.918 -145.8002
11.141180 98.916 -145.8924
11.221913 98.919 -145.9569
11.303232 98.925 -146.0023
11.385140 98.937 -146.0337
11.467641 98.953 -146.0520
11.550741 98.973 -146.0624
11.634442 98.998 -146.0746
11.718750 99.026 -146.0972
11.803669 99.059 -146.1338
11.889203 99.094 -146.1852
11.975357 99.132 -146.2543
12.062136 99.171 -146.3713
12.149543 99.210 -146.5234
12.237583 99.249 -146.6992
12.326262 99.289 -146.8957
12.415583 99.328 -147.1098
12.505552 99.366 -147.3399
12.596172 99.403 -147.5848
12.687449 99.439 -147.8401
12.779387 99.472 -148.0995
12.871992 99.503 -148.3593
12.965268 99.530 -148.6183
13.059220 99.555 -148.8954
13.153852 99.579 -149.1781
13.249170 99.600 -149.4514
13.345179 99.619 -149.7152
13.441884 99.637 -149.9702
13.539289 99.654 -150.2167
13.637401 99.671 -150.4549
13.736223 99.687 -150.6859
13.835761 99.703 -150.9122
13.936021 99.718 -151.1358
14.037007 99.734 -151.3686
14.138725 99.750 -151.6192
14.241180 99.764 -151.8704
14.344377 99.778 -152.1232
14.448323 99.791 -152.3775
14.553021 99.803 -152.6322
14.658478 99.813 -152.8862
14.764700 99.822 -153.1386
14.871691 99.829 -153.3886
14.979457 99.835 -153.6343
15.088005 99.840 -153.8976
15.197339 99.845 -154.1609
15.307465 99.849 -154.4188
15.418389 99.852 -154.6716
15.530117 99.856 -154.9196
15.642655 99.859 -155.1641
15.756008 99.862 -155.4068
15.870182 99.865 -155.6487
15.985184 99.867 -155.8900
16.101019 99.870 -156.1492
16.217694 99.872 -156.4108
16.335214 99.873 -156.6701
16.453586 99.873 -156.9241
16.572815 99.871 -157.1696
16.692909 99.867 -157.4040
16.813872 99.862 -157.6224
16.935713 99.857 -157.8210
17.058436 99.851 -158.0076
17.182048 99.846 -158.1823
17.306556 99.843 -158.3344
17.431967 99.843 -158.4669
17.558286 99.847 -158.5857
17.685521 99.855 -158.6969
17.813677 99.869 -158.8074
17.942762 99.887 -158.9273
18.072783 99.909 -159.0754
18.203746 99.934 -159.2548
18.335658 99.962 -159.4626
18.468526 99.989 -159.7008
18.602356 100.014 -159.9667
18.737156 100.037 -160.2553
18.872934 100.055 -160.5608
19.009695 100.068 -160.8730
19.147447 100.076 -161.1922
19.286197 100.080 -161.4974
19.425953 100.079 -161.7784
19.566721 100.077 -162.0284
19.708510 100.074 -162.2457
19.851326 100.073 -162.4308
19.995177 100.075 -162.5881
20.140070 100.081 -162.7429
20.286013 100.093 -162.8907
20.433014 100.110 -163.0422
20.581080 100.130 -163.2094
20.730219 100.154 -163.3997
20.880439 100.179 -163.6178
21.031747 100.203 -163.8687
21.184152 100.225 -164.1575
21.337661 100.243 -164.4660
21.492282 100.257 -164.7877
21.648024 100.267 -165.1136
21.804895 100.272 -165.4374
21.962902 100.275 -165.7547
22.122054 100.275 -166.0725
22.282360 100.273 -166.3853
22.443827 100.269 -166.6930
22.606464 100.264 -166.9972
22.770280 100.256 -167.2987
22.935283 100.244 -167.5951
23.101481 100.227 -167.8858
23.268884 100.205 -168.1573
23.437500 100.177 -168.3888
23.607338 100.145 -168.5636
23.778406 100.112 -168.6680
23.950714 100.082 -168.6927
24.124271 100.059 -168.6494
24.299086 100.049 -168.5466
24.475167 100.055 -168.4073
24.652524 100.081 -168.2712
24.831166 100.126 -168.1791
25.011103 100.187 -168.1759
25.192344 100.259 -168.2989
25.374898 100.334 -168.5602
25.558775 100.406 -168.9595
25.743984 100.466 -169.4787
25.930536 100.510 -170.0874
26.118439 100.533 -170.7479
26.307704 100.537 -171.4134
26.498341 100.521 -172.0323
26.690359 100.492 -172.5710
26.883768 100.456 -173.0055
27.078579 100.420 -173.3354
27.274801 100.391 -173.5763
27.472446 100.374 -173.7561
27.671522 100.370 -173.9157
27.872042 100.380 -174.0983
28.074014 100.398 -174.3415
28.277450 100.418 -174.6675
28.482360 100.435 -175.0718
28.688755 100.441 -175.5353
28.896645 100.433 -176.0268
29.106042 100.409 -176.5072
29.316957 100.370 -176.9356
29.529400 100.321 -177.2727
29.743382 100.268 -177.4979
29.958915 100.218 -177.6086
30.176009 100.179 -177.6299
30.394677 100.155 -177.5935
30.614929 100.147 -177.5454
30.836778 100.154 -177.5317
31.060234 100.171 -177.5885
31.285309 100.191 -177.7363
31.512015 100.207 -177.9626
31.740364 100.214 -178.2435
31.970368 100.209 -178.5411
32.202039 100.193 -178.8231
32.435388 100.170 -179.0516
32.670428 100.145 -179.2101
32.907171 100.125 -179.3022
33.145630 100.116 -179.3557
33.385817 100.119 -179.4081
33.627745 100.135 -179.4997
33.871425 100.160 -179.6679
34.116871 100.187 -179.9355
34.364096 100.210 179.6962
34.613113 100.223 179.2507
34.863934 100.222 178.7599
35.116572 100.206 178.2604
35.371041 100.176 177.7922
35.627354 100.135 177.3894
35.885525 100.089 177.0724
36.145566 100.044 176.8442
36.407492 100.006 176.6951
36.671316 99.978 176.6035
36.937051 99.963 176.5353
37.204712 99.960 176.4492
37.474313 99.968 176.3145
37.745867 99.980 176.1130
38.019389 99.991 175.8425
38.294893 99.996 175.5153
38.572394 99.991 175.1675
38.851905 99.976 174.8334
39.133442 99.953 174.5416
39.417019 99.927 174.3092
39.702651 99.903 174.1382
39.990353 99.883 174.0155
40.280140 99.870 173.9177
40.572026 99.864 173.8278
40.866028 99.863 173.7311
41.162160 99.867 173.6155
41.460438 99.875 173.4720
41.760877 99.886 173.2902
42.063494 99.897 173.0555
42.368303 99.905 172.7558
42.675322 99.905 172.4047
42.984565 99.894 172.0278
43.296048 99.868 171.6652
43.609789 99.832 171.3594
43.925804 99.791 171.1386
44.244108 99.753 170.9987
44.564719 99.726 170.9070
44.887654 99.710 170.8139
45.212928 99.702 170.6744
45.540560 99.695 170.4762
45.870565 99.682 170.2407
46.202962 99.661 170.0060
46.537768 99.637 169.8078
46.875000 99.614 169.6545
47.214676 99.600 169.5168
47.556813 99.593 169.3502
47.901429 99.588 169.1223
48.248542 99.577 168.8336
48.598171 99.554 168.5253
48.950334 99.519 168.2546
49.305048 99.478 168.0599
49.662333 99.441 167.9435
50.022206 99.415 167.8626
50.384688 99.399 167.7530
50.749796 99.386 167.5699
51.117550 99.367 167.3109
51.487969 99.334 167.0188
51.861072 99.285 166.7628
52.236879 99.227 166.5988
52.615409 99.170 166.5482
52.996681 99.126 166.5836
53.380717 99.100 166.6351
53.767536 99.090 166.6297
54.157158 99.089 166.5193
54.549603 99.087 166.3012
54.944892 99.075 166.0136
55.343045 99.052 165.7079
55.744084 99.022 165.4288
56.148028 98.991 165.1866
56.554900 98.962 164.9653
56.964720 98.937 164.7483
57.377510 98.911 164.5334
57.793291 98.885 164.3311
58.212085 98.860 164.1497
58.633914 98.839 163.9822
59.058799 98.823 163.8058
59.486764 98.808 163.5948
59.917829 98.790 163.3459
60.352019 98.763 163.0828
60.789354 98.726 162.8477
61.229859 98.684 162.6760
61.673556 98.642 162.5807
62.120468 98.609 162.5404
62.570618 98.587 162.5011
63.024031 98.573 162.4026
63.480729 98.558 162.2139
63.940736 98.534 161.9674
64.404077 98.498 161.7250
64.870776 98.455 161.5301
65.340856 98.411 161.3819
65.814343 98.372 161.2578
66.291261 98.334 161.1365
66.771635 98.298 161.0112
67.255489 98.261 160.8798
67.742850 98.224 160.7387
68.233743 98.185 160.5951
68.728193 98.141 160.4765
69.226226 98.098 160.4091
69.727867 98.063 160.3732
70.233144 98.038 160.3032
70.742083 98.016 160.1544
71.254709 97.984 159.9577
71.771050 97.944 159.7875
72.291132 97.904 159.6779
72.814984 97.871 159.5900
73.342631 97.843 159.4735
73.874102 97.812 159.3401
74.409424 97.778 159.2390
74.948626 97.749 159.1822
75.491734 97.727 159.1205
76.038779 97.709 159.0121
76.589787 97.687 158.8599
77.144788 97.655 158.6943
77.703811 97.615 158.5452
78.266885 97.567 158.4343
78.834039 97.516 158.3777
79.405303 97.467 158.3708
79.980706 97.426 158.3712
80.560280 97.390 158.3315
81.144053 97.353 158.2341
81.732056 97.314 158.0952
82.324320 97.273 157.9364
82.920876 97.229 157.7678
83.521755 97.184 157.6075
84.126988 97.141 157.4616
84.736607 97.101 157.3138
85.350643 97.059 157.1536
85.969129 97.013 157.0172
86.592097 96.964 156.9677
87.219579 96.923 156.9817
87.851608 96.891 156.9742
88.488217 96.856 156.9060
89.129439 96.809 156.8130
89.775308 96.748 156.7742
90.425856 96.683 156.8503
91.081119 96.630 157.0229
91.741131 96.596 157.1936
92.405925 96.577 157.2404
93.075536 96.556 157.1309
93.750000 96.521 156.9447
94.429351 96.474 156.7938
95.113625 96.426 156.7057
95.802858 96.383 156.6404
96.497085 96.341 156.5730
97.196342 96.298 156.5058
97.900667 96.252 156.4622
98.610096 96.206 156.4572
99.324665 96.162 156.4686
100.044413 96.120 156.4735
100.769376 96.077 156.4694
101.499592 96.033 156.4571
102.235100 95.986 156.4367
102.975938 95.937 156.4167
103.722144 95.887 156.4199
104.473757 95.839 156.4470
105.230817 95.797 156.4652
105.993363 95.756 156.4442
106.761435 95.711 156.3939
107.535072 95.662 156.3419
108.314315 95.607 156.3158
109.099206 95.549 156.3516
109.889783 95.496 156.4600
110.686090 95.453 156.5889
111.488167 95.418 156.6848
112.296056 95.385 156.7393
113.109800 95.349 156.7606
113.929440 95.308 156.7547
114.755020 95.258 156.7669
115.586582 95.203 156.8262
116.424170 95.149 156.9284
117.267827 95.097 157.0475
118.117598 95.048 157.1709
118.973527 94.999 157.2987
119.835658 94.952 157.4377
120.704037 94.908 157.5929
121.578708 94.869 157.7499
122.459718 94.833 157.8858
123.347111 94.799 157.9986
124.240935 94.767 158.0839
125.141236 94.735 158.1278
126.048061 94.698 158.1473
126.961458 94.658 158.1865
127.881473 94.618 158.2630
128.808154 94.582 158.3487
129.741551 94.547 158.3982
130.681712 94.505 158.4495
131.628686 94.459 158.5758
132.582521 94.416 158.7769
133.543269 94.379 159.0165
134.510979 94.346 159.3004
135.485701 94.319 159.6356
136.467486 94.296 159.9655
137.456386 94.269 160.2269
138.452451 94.228 160.4376
139.455735 94.173 160.6261
140.466288 94.110 160.7831
141.484165 94.046 160.8901
142.509418 93.987 160.9258
143.542100 93.937 160.9198
144.582265 93.900 160.9581
145.629968 93.881 161.1194
146.685262 93.884 161.4122
147.748204 93.902 161.7771
148.818849 93.916 162.1482
149.897251 93.910 162.5374
150.983469 93.882 162.9306
152.077557 93.835 163.2736
153.179574 93.773 163.5263
154.289576 93.705 163.6984
155.407622 93.638 163.8189
156.533770 93.577 163.9583
157.668078 93.529 164.1711
158.810606 93.492 164.4575
159.961413 93.462 164.8068
161.120559 93.434 165.1822
162.288105 93.404 165.5393
163.464112 93.372 165.8559
164.648640 93.338 166.1114
165.841752 93.305 166.3179
167.043510 93.273 166.4691
168.253976 93.241 166.5967
169.473213 93.206 166.7296
170.701286 93.169 166.9202
171.938258 93.136 167.1700
173.184194 93.110 167.4640
174.439158 93.090 167.7418
175.703216 93.067 167.9781
176.976434 93.036 168.2532
178.258878 93.008 168.6560
179.550615 92.991 169.0984
180.851713 92.985 169.5457
182.162239 92.986 169.9731
183.482262 92.991 170.3509
184.811850 92.992 170.6888
186.151073 92.991 170.9846
187.500000 92.985 171.2050
188.858702 92.968 171.4066
190.227250 92.947 171.7060
191.605715 92.929 172.0798
192.994169 92.915 172.4965
194.392685 92.898 172.8558
195.801334 92.873 173.1791
197.220191 92.851 173.4760
198.649330 92.839 173.6859
200.088825 92.837 173.8348
201.538751 92.841 173.9899
202.999184 92.839 174.2214
204.470200 92.827 174.5822
205.951875 92.809 175.0338
207.444287 92.795 175.4202
208.947514 92.789 175.6635
210.461634 92.799 175.7917
211.986726 92.821 175.8811
213.522869 92.846 176.0130
215.070144 92.863 176.2966
216.628631 92.871 176.6663
218.198411 92.876 176.9952
219.779567 92.887 177.2312
221.372180 92.915 177.3734
222.976334 92.954 177.4598
224.592112 92.982 177.6061
226.219600 92.981 177.8520
227.858880 92.947 178.1761
229.510039 92.899 178.5291
231.173164 92.870 178.8613
232.848340 92.876 179.1113
234.535655 92.907 179.2969
236.235197 92.943 179.5172
237.947054 92.969 179.7284
239.671317 92.984 179.9073
241.408074 92.999 -179.9482
243.157416 93.019 -179.7669
244.919435 93.036 -179.5378
246.694223 93.033 -179.2681
248.481871 93.006 -179.0000
250.282473 92.970 -178.7888
252.096123 92.950 -178.6729
253.922915 92.952 -178.6428
255.762945 92.965 -178.6168
257.616309 92.976 -178.4968
259.483103 92.982 -178.3233
261.363424 92.989 -178.1541
263.257372 93.002 -177.9929
265.165043 93.018 -177.7920
267.086538 93.034 -177.5500
269.021957 93.044 -177.3246
270.971401 93.048 -177.1654
272.934972 93.044 -177.0230
274.912771 93.038 -176.8451
276.904902 93.036 -176.6457
278.911469 93.039 -176.4920
280.932577 93.045 -176.4175
282.968330 93.053 -176.3536
285.018835 93.065 -176.2364
287.084199 93.078 -176.0589
289.164530 93.089 -175.8682
291.259935 93.096 -175.7013
293.370525 93.098 -175.5508
295.496408 93.097 -175.3860
297.637697 93.096 -175.2067
299.794503 93.096 -175.0239
301.966937 93.098 -174.8449
304.155114 93.105 -174.6767
306.359147 93.115 -174.5135
308.579152 93.126 -174.3646
310.815244 93.132 -174.2157
313.067539 93.134 -174.0761
315.336156 93.134 -173.9458
317.621211 93.138 -173.8300
319.922826 93.148 -173.7224
322.241118 93.160 -173.6057
324.576210 93.169 -173.4422
326.928223 93.173 -173.2392
329.297280 93.173 -173.0218
331.683504 93.170 -172.8740
334.087019 93.164 -172.7731
336.507952 93.156 -172.6908
338.946427 93.150 -172.5752
341.402572 93.145 -172.4410
343.876516 93.144 -172.2884
346.368387 93.149 -172.1808
348.878315 93.159 -172.0957
351.406431 93.171 -171.9863
353.952867 93.184 -171.8325
356.517756 93.195 -171.6755
359.101230 93.200 -171.5565
361.703426 93.199 -171.4520
364.324478 93.195 -171.3422
366.964523 93.192 -171.1995
369.623699 93.192 -171.0562
372.302145 93.192 -170.9469
375.000000 93.191 -170.8320
377.717405 93.189 -170.6888
380.454501 93.188 -170.5084
383.211431 93.188 -170.3539
385.988339 93.189 -170.2309
388.785369 93.191 -170.1250
391.602668 93.190 -170.0104
394.440383 93.184 -169.8925
397.298660 93.176 -169.7702
400.177650 93.166 -169.6614
403.077502 93.156 -169.5432
405.998368 93.147 -169.4106
408.940400 93.140 -169.2802
411.903750 93.135 -169.1391
414.888575 93.131 -168.9777
417.895028 93.133 -168.7586
420.923268 93.144 -168.5246
423.973452 93.157 -168.3830
427.045738 93.158 -168.2784
430.140287 93.148 -168.1626
433.257261 93.134 -168.0553
436.396822 93.117 -167.9648
439.559133 93.100 -167.8080
442.744360 93.091 -167.5561
445.952668 93.094 -167.3051
449.184225 93.101 -167.1082
452.439199 93.109 -166.9569
455.717760 93.112 -166.8726
459.020079 93.111 -166.7926
462.346327 93.109 -166.6465
465.696680 93.109 -166.4568
469.071310 93.105 -166.2280
472.470394 93.097 -165.9525
475.894109 93.093 -165.6456
479.342634 93.096 -165.4344
482.816148 93.098 -165.3332
486.314833 93.092 -165.2420
489.838871 93.081 -165.1268
493.388445 93.068 -165.0067
496.963741 93.053 -164.8152
500.564945 93.041 -164.5468
504.192245 93.038 -164.2445
507.845830 93.038 -163.9694
511.525890 93.027 -163.8049
515.232618 93.002 -163.6342
518.966206 92.981 -163.3832
522.726849 92.971 -163.1360
526.514743 92.968 -162.9543
530.330086 92.963 -162.7841
534.173076 92.961 -162.6223
538.043915 92.962 -162.4762
541.942803 92.968 -162.2985
545.869944 92.975 -162.0573
549.825542 92.977 -161.7649
553.809805 92.971 -161.4486
557.822939 92.960 -161.1584
561.865154 92.951 -160.8932
565.936660 92.941 -160.5852
570.037671 92.924 -160.2616
574.168399 92.902 -159.9969
578.329060 92.889 -159.8139
582.519870 92.889 -159.6474
586.741049 92.891 -159.5017
590.992817 92.890 -159.3608
595.275394 92.884 -159.1710
599.589005 92.874 -158.9267
603.933874 92.866 -158.6847
608.310228 92.866 -158.4555
612.718295 92.868 -158.1909
617.158304 92.868 -157.8625
621.630488 92.867 -157.5111
626.135079 92.867 -157.1848
630.672311 92.866 -156.8871
635.242423 92.860 -156.5998
639.845651 92.854 -156.2741
644.482237 92.850 -155.9385
649.152421 92.847 -155.6066
653.856447 92.842 -155.2910
658.594560 92.839 -154.9992
663.367008 92.835 -154.7403
668.174039 92.831 -154.5331
673.015903 92.832 -154.3301
677.892854 92.839 -154.0826
682.805145 92.849 -153.7603
687.753032 92.861 -153.4061
692.736774 92.872 -153.0435
697.756631 92.877 -152.7129
702.812863 92.877 -152.4150
707.905735 92.876 -152.1167
713.035511 92.876 -151.8162
718.202461 92.876 -151.4901
723.406852 92.876 -151.1545
728.648956 92.877 -150.7891
733.929047 92.881 -150.4288
739.247399 92.884 -150.0549
744.604290 92.888 -149.6998
750.000000 92.892 -149.3523
755.434809 92.897 -149.0046
760.909001 92.904 -148.6517
766.422861 92.912 -148.2843
771.976677 92.922 -147.9156
777.570739 92.934 -147.5365
783.205337 92.945 -147.1556
788.880766 92.950 -146.7705
794.597321 92.952 -146.3957
800.355301 92.956 -146.0216
806.155005 92.966 -145.6627
811.996736 92.982 -145.2805
817.880799 92.999 -144.8780
823.807501 93.013 -144.4781
829.777150 93.026 -144.0895
835.790057 93.041 -143.6877
841.846536 93.057 -143.2889
847.946903 93.075 -142.8832
854.091476 93.094 -142.4813
860.280575 93.114 -142.0795
866.514523 93.134 -141.6703
872.793644 93.154 -141.2613
879.118267 93.176 -140.8429
885.488720 93.198 -140.4188
891.905336 93.220 -139.9928
898.368450 93.244 -139.5769
904.878398 93.270 -139.1567
911.435520 93.298 -138.7505
918.040157 93.328 -138.3416
924.692655 93.359 -137.9349
931.393359 93.392 -137.5310
938.142619 93.424 -137.1208
944.940787 93.457 -136.7154
951.788218 93.490 -136.3228
958.685268 93.525 -135.9297
965.632296 93.562 -135.5370
972.629666 93.601 -135.1437
979.677741 93.640 -134.7556
986.776890 93.680 -134.3725
993.927482 93.722 -134.0004
1001.129891 93.765 -133.6418
1008.384491 93.810 -133.2803
1015.691660 93.855 -132.9325
1023.051781 93.900 -132.5805
1030.465236 93.946 -132.2457
1037.932411 93.993 -131.9184
1045.453698 94.041 -131.5934
1053.029486 94.089 -131.2915
1060.660172 94.136 -130.9899
1068.346153 94.184 -130.6935
1076.087829 94.233 -130.4035
1083.885605 94.281 -130.1193
1091.739887 94.330 -129.8467
1099.651084 94.378 -129.5901
1107.619609 94.426 -129.3397
1115.645878 94.474 -129.0895
1123.730308 94.522 -128.8385
1131.873321 94.570 -128.6026
1140.075341 94.617 -128.3816
1148.336797 94.662 -128.1587
1156.658119 94.706 -127.9361
1165.039741 94.750 -127.7322
1173.482099 94.793 -127.5194
1181.985634 94.836 -127.3200
1190.550789 94.878 -127.1163
1199.178011 94.919 -126.9174
1207.867749 94.959 -126.7043
1216.620457 94.997 -126.5044
1225.436590 95.034 -126.3054
1234.316609 95.070 -126.1075
1243.260976 95.106 -125.9004
1252.270157 95.143 -125.6880
1261.344623 95.180 -125.4720
1270.484846 95.217 -125.2603
1279.691303 95.254 -125.0386
1288.964474 95.291 -124.8246
1298.304842 95.328 -124.6016
1307.712894 95.364 -124.3662
1317.189120 95.400 -124.1307
1326.734016 95.435 -123.8745
1336.348077 95.471 -123.6249
1346.031806 95.508 -123.3592
1355.785708 95.546 -123.0767
1365.610290 95.585 -122.8034
1375.506065 95.627 -122.5203
1385.473549 95.672 -122.2191
1395.513261 95.717 -121.9066
1405.625726 95.763 -121.6015
1415.811469 95.810 -121.3086
1426.071023 95.859 -121.0270
1436.404921 95.911 -120.7498
1446.813703 95.964 -120.4696
1457.297912 96.019 -120.2020
1467.858093 96.075 -119.9457
1478.494798 96.132 -119.7095
1489.208581 96.190 -119.4809
1500.000000 96.248 -119.2584
1510.869618 96.306 -119.0764
1521.818002 96.363 -118.8979
1532.845723 96.419 -118.7272
1543.953355 96.472 -118.5783
1555.141477 96.523 -118.4328
1566.410674 96.571 -118.3024
1577.761531 96.617 -118.1774
1589.194642 96.662 -118.0526
1600.710601 96.705 -117.9255
1612.310010 96.748 -117.7899
1623.993473 96.789 -117.6453
1635.761599 96.829 -117.4877
1647.615002 96.866 -117.3161
1659.554299 96.903 -117.1222
1671.580114 96.939 -116.9269
1683.693072 96.976 -116.7144
1695.893807 97.014 -116.4981
1708.182952 97.055 -116.2781
1720.561150 97.097 -116.0642
1733.029045 97.141 -115.8659
1745.587288 97.184 -115.6843
1758.236533 97.232 -115.4805
1770.977440 97.291 -115.2246
1783.810673 97.354 -114.9464
1796.736900 97.415 -114.7214
1809.756796 97.472 -114.5453
1822.871040 97.527 -114.4128
1836.080315 97.580 -114.2894
1849.385310 97.630 -114.1837
1862.786718 97.677 -114.0682
1876.285239 97.722 -113.9635
1889.881575 97.765 -113.8441
1903.576436 97.807 -113.7276
1917.370535 97.848 -113.6004
1931.264593 97.888 -113.4654
1945.259332 97.927 -113.3285
1959.355483 97.968 -113.1814
1973.553781 98.008 -113.0280
1987.854965 98.049 -112.8714
2002.259781 98.091 -112.7079
2016.768981 98.133 -112.5363
2031.383320 98.175 -112.3603
2046.103561 98.218 -112.1807
2060.930471 98.262 -112.0067
2075.864823 98.307 -111.8291
2090.907395 98.352 -111.6280
2106.058972 98.397 -111.4501
2121.320344 98.444 -111.2528
2136.692305 98.491 -111.0698
2152.175658 98.539 -110.8837
2167.771210 98.586 -110.7111
2183.479774 98.634 -110.5202
2199.302169 98.681 -110.3301
2215.239219 98.728 -110.1157
2231.291755 98.777 -109.8805
2247.460615 98.827 -109.6462
2263.746641 98.881 -109.4129
2280.150683 98.939 -109.1913
2296.673595 99.000 -108.9866
2313.316238 99.060 -108.8068
2330.079481 99.121 -108.6149
2346.964198 99.183 -108.4203
2363.971268 99.248 -108.2279
2381.101578 99.317 -108.0337
2398.356022 99.389 -107.8612
2415.735498 99.462 -107.7067
2433.240913 99.538 -107.5745
2450.873180 99.614 -107.4755
2468.633217 99.692 -107.4050
2486.521951 99.771 -107.3605
2504.540314 99.850 -107.3413
2522.689246 99.928 -107.3492
2540.969692 100.002 -107.3832
2559.382606 100.073 -107.4403
2577.928947 100.143 -107.4887
2596.609683 100.209 -107.5336
2615.425787 100.274 -107.5791
2634.378241 100.338 -107.6281
2653.468031 100.400 -107.6692
2672.696154 100.462 -107.6986
2692.063613 100.525 -107.7183
2711.571415 100.589 -107.7565
2731.220579 100.656 -107.7988
2751.012130 100.724 -107.8528
2770.947098 100.794 -107.9279
2791.026522 100.865 -108.0314
2811.251451 100.935 -108.1741
2831.622938 101.005 -108.3409
2852.142045 101.073 -108.5316
2872.809842 101.139 -108.7609
2893.627406 101.201 -109.0209
2914.595823 101.259 -109.3134
2935.716186 101.312 -109.6087
2956.989596 101.359 -109.9165
2978.417161 101.400 -110.2345
3000.000000 101.438 -110.5569
3021.739237 101.470 -110.8603
3043.636005 101.498 -111.1740
3065.691446 101.522 -111.4824
3087.906710 101.542 -111.7763
3110.282955 101.557 -112.0755
3132.821347 101.567 -112.3691
3155.523062 101.572 -112.6374
3178.389283 101.572 -112.8983
3201.421202 101.567 -113.1400
3224.620020 101.559 -113.3676
3247.986946 101.549 -113.5774
3271.523198 101.537 -113.7626
3295.230004 101.524 -113.9209
3319.108599 101.512 -114.0612
3343.160228 101.501 -114.1859
3367.386145 101.493 -114.3025
3391.787613 101.488 -114.4249
3416.365904 101.483 -114.5595
3441.122300 101.480 -114.7011
3466.058091 101.476 -114.8670
3491.174576 101.470 -115.0538
3516.473066 101.461 -115.2542
3541.954880 101.447 -115.4776
3567.621345 101.429 -115.7048
3593.473800 101.407 -115.9214
3619.513592 101.380 -116.1314
3645.742080 101.351 -116.3319
3672.160630 101.318 -116.5159
3698.770620 101.283 -116.6821
3725.573436 101.246 -116.8235
3752.570477 101.209 -116.9559
3779.763150 101.170 -117.0804
3807.152872 101.130 -117.2004
3834.741071 101.090 -117.3256
3862.529185 101.047 -117.4402
3890.518664 101.001 -117.5526
3918.710966 100.954 -117.6714
3947.107561 100.905 -117.7744
3975.709929 100.855 -117.8799
4004.519563 100.803 -117.9663
4033.537962 100.751 -118.0435
4062.766641 100.698 -118.1178
4092.207123 100.642 -118.1724
4121.860942 100.585 -118.2157
4151.729646 100.524 -118.2528
4181.814790 100.461 -118.2692
4212.117944 100.394 -118.2687
4242.640687 100.325 -118.2477
4273.384610 100.253 -118.2032
4304.351317 100.180 -118.1319
4335.542421 100.107 -118.0433
4366.959549 100.032 -117.9291
4398.604338 99.958 -117.7965
4430.478438 99.884 -117.6488
4462.583511 99.809 -117.4808
4494.921231 99.733 -117.2993
4527.493283 99.656 -117.0821
4560.301365 99.579 -116.8631
4593.347189 99.501 -116.6271
4626.632476 99.423 -116.3624
4660.158962 99.345 -116.0890
4693.928395 99.266 -115.7892
4727.942535 99.187 -115.4779
4762.203156 99.108 -115.1538
4796.712043 99.028 -114.8110
4831.470996 98.949 -114.4538
4866.481826 98.870 -114.0780
4901.746360 98.790 -113.7078
4937.266434 98.708 -113.2915
4973.043902 98.624 -112.8719
5009.080628 98.535 -112.4367
5045.378492 98.441 -111.9701
5081.939384 98.343 -111.4823
5118.765212 98.242 -110.9733
5155.857894 98.142 -110.4489
5193.219366 98.043 -109.8969
5230.851574 97.945 -109.3210
5268.756481 97.847 -108.7249
5306.936062 97.751 -108.1064
5345.392309 97.655 -107.4695
5384.127225 97.562 -106.8061
5423.142830 97.470 -106.1208
5462.441159 97.381 -105.4150
5502.024259 97.293 -104.6942
5541.894195 97.208 -103.9497
5582.053045 97.124 -103.1837
5622.502902 97.042 -102.4111
5663.245876 96.963 -101.6110
5704.284090 96.887 -100.7809
5745.619684 96.814 -99.9672
5787.254813 96.743 -99.1199
5829.191647 96.675 -98.2680
5871.432373 96.610 -97.3887
5913.979192 96.548 -96.4821
5956.834323 96.488 -95.5662
6000.000000 96.432 -94.6381
6043.478473 96.380 -93.6592
6087.272010 96.333 -92.6833
6131.382892 96.291 -91.6831
6175.813420 96.255 -90.6746
6220.565910 96.227 -89.6495
6265.642695 96.209 -88.6109
6311.046124 96.202 -87.5758
6356.778566 96.208 -86.5348
6402.842404 96.224 -85.4942
6449.240040 96.250 -84.4433
6495.973891 96.284 -83.4180
6543.046396 96.326 -82.3840
6590.460007 96.377 -81.3682
6638.217197 96.434 -80.3651
6686.320456 96.500 -79.3767
6734.772290 96.572 -78.4009
6783.575226 96.653 -77.4467
6832.731809 96.742 -76.5227
6882.244600 96.840 -75.6297
6932.116181 96.947 -74.7771
6982.349153 97.065 -73.9554
7032.946133 97.193 -73.2045
7083.909760 97.332 -72.4877
7135.242690 97.482 -71.8580
7186.947600 97.642 -71.3102
7239.027185 97.812 -70.8562
7291.484160 97.990 -70.5015
7344.321260 98.175 -70.2747
7397.541239 98.366 -70.1738
7451.146872 98.561 -70.2180
7505.140954 98.761 -70.4076
7559.526299 98.963 -70.7562
7614.305743 99.165 -71.3008
7669.482141 99.363 -72.0324
7725.058371 99.554 -72.9806
7781.037328 99.731 -74.1507
7837.421932 99.888 -75.5513
7894.215122 100.019 -77.1628
7951.419859 100.115 -78.9758
8009.039125 100.167 -80.9564
8067.075924 100.170 -83.0938
8125.533282 100.121 -85.3348
8184.414245 100.019 -87.6496
8243.721885 99.864 -89.9799
8303.459292 99.655 -92.2838
8363.629581 99.395 -94.4987
8424.235888 99.084 -96.5831
8485.281374 98.728 -98.5141
8546.769221 98.331 -100.2227
8608.702634 97.898 -101.7069
8671.084842 97.431 -102.9354
8733.919097 96.938 -103.8878
8797.208675 96.422 -104.5805
8860.956876 95.889 -104.9659
8925.167022 95.343 -105.0781
8989.842461 94.789 -104.8857
9054.986566 94.232 -104.4053
9120.602731 93.675 -103.6389
9186.694378 93.124 -102.5956
9253.264952 92.581 -101.2652
9320.317925 92.050 -99.6923
9387.856790 91.535 -97.8585
9455.885071 91.040 -95.8196
9524.406312 90.568 -93.5579
9593.424086 90.120 -91.1280
9662.941992 89.698 -88.5322
9732.963653 89.301 -85.8234
9803.492719 88.931 -82.9685
9874.532869 88.589 -80.0371
9946.087805 88.277 -77.0311
10018.161257 87.997 -73.9599
10090.756983 87.749 -70.8395
10163.878768 87.531 -67.6846
10237.530423 87.340 -64.5096
10311.715789 87.174 -61.3051
10386.438732 87.032 -58.1054
10461.703149 86.912 -54.9072
10537.512962 86.814 -51.7187
10613.872125 86.739 -48.5586
10690.784618 86.685 -45.4424
10768.254450 86.653 -42.3484
10846.285661 86.640 -39.3455
10924.882318 86.646 -36.4062
11004.048518 86.668 -33.5664
11083.788390 86.705 -30.8246
11164.106090 86.754 -28.2234
11245.005805 86.808 -25.7604
11326.491752 86.861 -23.4386
11408.568180 86.906 -21.2370
11491.239368 86.935 -19.1325
11574.509626 86.945 -17.0784
11658.383294 86.930 -14.9638
11742.864745 86.893 -12.7242
11827.958384 86.840 -10.2436
11913.668646 86.787 -7.4268
12000.000000 86.753 -4.2095
12086.956947 86.762 -0.6240
12174.544019 86.838 3.3019
12262.765784 86.998 7.4634
12351.626840 87.257 11.7189
12441.131819 87.622 15.9485
12531.285389 88.098 19.9952
12622.092249 88.688 23.7160
12713.557132 89.396 26.9521
12805.684808 90.226 29.5351
12898.480079 91.174 31.2377
12991.947783 92.226 31.7525
13086.092792 93.343 30.7553
13180.920015 94.460 27.9975
13276.434395 95.484 23.2699
13372.640911 96.304 16.6891
13469.544580 96.818 8.6325
13567.150452 96.954 -0.1397
13665.463617 96.696 -8.7642
13764.489200 96.091 -16.3644
13864.232362 95.229 -22.3855
13964.698305 94.219 -26.6095
14065.892266 93.161 -29.1157
14167.819519 92.134 -30.1248
14270.485380 91.182 -30.0159
14373.895200 90.326 -29.0495
14478.054370 89.566 -27.4638
14582.968320 88.898 -25.4430
14688.642520 88.311 -23.0801
14795.082478 87.800 -20.4642
14902.293745 87.358 -17.6600
15010.281908 86.983 -14.6725
15119.052599 86.673 -11.5896
15228.611486 86.427 -8.4075
15338.964283 86.247 -5.1808
15450.116741 86.132 -1.9388
15562.074656 86.088 1.2788
15674.843864 86.117 4.3975
15788.430244 86.229 7.3934
15902.839718 86.437 10.1390
16018.078250 86.755 12.5406
16134.151848 87.184 14.4525
16251.066563 87.714 15.7133
16368.828491 88.322 16.0514
16487.443769 88.973 15.2621
16606.918584 89.617 13.1227
16727.259161 90.185 9.4972
16848.471777 90.594 4.4417
16970.562748 90.765 -1.7504
17093.538442 90.639 -8.5506
17217.405268 90.193 -15.3395
17342.169684 89.443 -21.4618
17467.838194 88.444 -26.3959
17594.417350 87.268 -29.8728
17721.913751 85.991 -31.8562
17850.334044 84.680 -32.4088
17979.684923 83.383 -31.7680
18109.973131 82.136 -30.1379
18241.205462 80.957 -27.7812
18373.388756 79.864 -24.8510
18506.529905 78.874 -21.4877
18640.635849 78.006 -17.8197
18775.713581 77.269 -13.9575
18911.770141 76.653 -9.9410
19048.812624 76.122 -5.8324
19186.848172 75.630 -1.7025
19325.883983 75.129 2.4485
19465.927305 74.582 6.5560
19606.985439 73.976 10.5894
19749.065738 73.319 14.5743
19892.175609 72.621 18.4405
20036.322514 71.890 22.2716
20181.513966 71.130 26.0705
20327.757536 70.348 29.8861
20475.060846 69.554 33.7750
20623.431577 68.760 37.7911
20772.877464 67.973 42.0299
20923.406297 67.209 46.5960
21075.025924 66.480 51.5141
21227.744250 65.803 56.8318
21381.569235 65.193 62.6821
21536.508900 64.671 69.0739
21692.571321 64.256 76.0257
21849.764635 63.969 83.4332
22008.097037 63.832 91.2766
22167.576780 63.867 99.3801
22328.212180 64.086 107.3307
22490.011609 64.468 114.5902
22652.983504 64.938 120.3297
22817.136361 65.369 124.0007
22982.478737 65.610 125.4616
23149.019252 65.527 125.0437
23316.766588 65.037 123.3273
23485.729490 64.125 120.6949
23655.916767 62.828 116.0893
23827.337292 61.287 103.4969
24000.000000 60.044 66.0972
