* Measurement data measured by REW V5.31.1
* Source: CUBILUX HLMS-C5 MIC IN, MICROPHONE, R, volume: 1.000
* Format: 4M Log Swept Sine, 1 sweep at -40.0 dBFS with no timing reference
* Dated: Sep 13, 2024 9:34:59 PM
* REW Settings:
*  C-weighting compensation: Off
*  Target level: 75.0 dB
* Note: ; 
* Measurement: Artti R3 R
* Smoothing: 1/24 octave
* Frequency Step: 1/48 octave
* Start Frequency: 1.000 Hz
*
* Freq(Hz), SPL(dB), Phase(degrees)
1.000000, 56.197, 63.5450
1.015000, 56.370, 61.9395
1.030000, 56.544, 60.3661
1.044000, 56.705, 58.9246
1.060000, 56.889, 57.3066
1.075000, 57.060, 55.8158
1.090000, 57.229, 54.3476
1.106000, 57.409, 52.8040
1.120000, 57.568, 51.4713
1.138000, 57.776, 49.7835
1.150000, 57.917, 48.6752
1.172000, 58.179, 46.6797
1.180000, 58.276, 45.9661
1.206000, 58.592, 43.6925
1.220000, 58.765, 42.4973
1.241000, 59.025, 40.7430
1.250000, 59.137, 40.0052
1.265000, 59.325, 38.7943
1.280000, 59.512, 37.6065
1.315000, 59.949, 34.9228
1.320000, 60.012, 34.5492
1.340000, 60.260, 33.0785
1.360000, 60.506, 31.6448
1.380000, 60.750, 30.2464
1.400000, 60.991, 28.8820
1.430000, 61.345, 26.8951
1.450000, 61.575, 25.6081
1.475000, 61.856, 24.0393
1.500000, 62.133, 22.5144
1.525000, 62.408, 21.0325
1.550000, 62.679, 19.5914
1.575000, 62.948, 18.1885
1.600000, 63.214, 16.8209
1.625000, 63.476, 15.4857
1.650000, 63.736, 14.1797
1.675000, 63.992, 12.8999
1.700000, 64.244, 11.6430
1.725000, 64.494, 10.4060
1.750000, 64.739, 9.1858
1.775000, 64.981, 7.9795
1.800000, 65.219, 6.7843
1.825000, 65.453, 5.5975
1.850000, 65.684, 4.4176
1.875000, 65.910, 3.2456
1.900000, 66.132, 2.0838
1.925000, 66.351, 0.9340
1.950000, 66.566, -0.2022
1.975000, 66.778, -1.3237
2.000000, 66.986, -2.4298
2.030000, 67.231, -3.7363
2.060000, 67.472, -5.0199
2.090000, 67.708, -6.2811
2.120000, 67.940, -7.5205
2.140000, 68.093, -8.3354
2.180000, 68.392, -9.9400
2.200000, 68.540, -10.7320
2.240000, 68.828, -12.3046
2.270000, 69.039, -13.4759
2.300000, 69.245, -14.6380
2.330000, 69.447, -15.7887
2.360000, 69.644, -16.9261
2.400000, 69.901, -18.4193
2.430000, 70.089, -19.5205
2.470000, 70.335, -20.9626
2.500000, 70.515, -22.0243
2.540000, 70.751, -23.4143
2.580000, 70.981, -24.7813
2.620000, 71.204, -26.1383
2.650000, 71.367, -27.1514
2.690000, 71.579, -28.4927
2.720000, 71.734, -29.4890
2.760000, 71.935, -30.8013
2.800000, 72.130, -32.0919
2.850000, 72.368, -33.6708
2.900000, 72.599, -35.2087
2.950000, 72.822, -36.7120
3.000000, 73.037, -38.2009
3.040000, 73.204, -39.3847
3.070000, 73.325, -40.2660
3.110000, 73.482, -41.4289
3.150000, 73.636, -42.5747
3.200000, 73.822, -43.9775
3.250000, 74.002, -45.3426
3.300000, 74.177, -46.6698
3.350000, 74.346, -47.9723
3.400000, 74.509, -49.2603
3.450000, 74.665, -50.5318
3.500000, 74.816, -51.7821
3.550000, 74.963, -53.0064
3.600000, 75.105, -54.2003
3.650000, 75.243, -55.3617
3.700000, 75.377, -56.4960
3.750000, 75.507, -57.6123
3.820000, 75.681, -59.1473
3.870000, 75.800, -60.2206
3.950000, 75.984, -61.8897
4.000000, 76.096, -62.8990
4.060000, 76.227, -64.0769
4.120000, 76.354, -65.2266
4.180000, 76.476, -66.3520
4.250000, 76.614, -67.6337
4.310000, 76.729, -68.7041
4.370000, 76.842, -69.7475
4.440000, 76.970, -70.9318
4.500000, 77.078, -71.9225
4.550000, 77.165, -72.7327
4.620000, 77.284, -73.8443
4.680000, 77.385, -74.7768
4.750000, 77.500, -75.8417
4.820000, 77.612, -76.8829
4.870000, 77.692, -77.6134
4.940000, 77.800, -78.6189
5.000000, 77.892, -79.4660
5.080000, 78.011, -80.5764
5.150000, 78.113, -81.5314
5.220000, 78.214, -82.4722
5.300000, 78.326, -83.5311
5.380000, 78.436, -84.5731
5.450000, 78.529, -85.4719
5.520000, 78.621, -86.3597
5.600000, 78.723, -87.3629
5.700000, 78.847, -88.5996
5.800000, 78.966, -89.8148
5.900000, 79.081, -91.0086
6.000000, 79.191, -92.1854
6.080000, 79.276, -93.1138
6.150000, 79.348, -93.9146
6.220000, 79.418, -94.7038
6.300000, 79.495, -95.5930
6.400000, 79.588, -96.6880
6.500000, 79.676, -97.7616
6.600000, 79.762, -98.8098
6.700000, 79.843, -99.8348
6.800000, 79.920, -100.8383
6.900000, 79.995, -101.8178
7.000000, 80.067, -102.7717
7.100000, 80.136, -103.7022
7.200000, 80.203, -104.6100
7.300000, 80.267, -105.4944
7.400000, 80.330, -106.3551
7.500000, 80.391, -107.1939
7.620000, 80.462, -108.1730
7.750000, 80.538, -109.2013
7.880000, 80.612, -110.1972
8.000000, 80.680, -111.0915
8.120000, 80.746, -111.9644
8.250000, 80.818, -112.8869
8.380000, 80.889, -113.7900
8.500000, 80.954, -114.6098
8.620000, 81.019, -115.4171
8.750000, 81.088, -116.2812
8.850000, 81.141, -116.9406
9.000000, 81.219, -117.9220
9.120000, 81.279, -118.7014
9.250000, 81.343, -119.5422
9.380000, 81.405, -120.3788
9.500000, 81.460, -121.1456
9.620000, 81.513, -121.9073
9.750000, 81.566, -122.7257
9.880000, 81.610, -123.5324
10.000000, 81.641, -124.2652
10.150000, 81.667, -125.1637
10.300000, 81.683, -126.0356
10.440000, 81.693, -126.8240
10.600000, 81.698, -127.6926
10.750000, 81.702, -128.4727
10.900000, 81.705, -129.2217
11.060000, 81.709, -129.9886
11.200000, 81.712, -130.6344
11.380000, 81.717, -131.4393
11.500000, 81.722, -131.9631
11.720000, 81.733, -132.9066
11.800000, 81.737, -133.2473
12.060000, 81.751, -134.3500
12.200000, 81.757, -134.9438
12.410000, 81.767, -135.8320
12.500000, 81.774, -136.2100
12.650000, 81.787, -136.8347
12.800000, 81.801, -137.4476
13.150000, 81.827, -138.8090
13.200000, 81.830, -138.9938
13.400000, 81.841, -139.7066
13.600000, 81.853, -140.3800
13.800000, 81.868, -141.0195
14.000000, 81.885, -141.6388
14.300000, 81.919, -142.5583
14.500000, 81.945, -143.1849
14.750000, 81.977, -143.9962
15.000000, 82.005, -144.8388
15.250000, 82.026, -145.6980
15.500000, 82.037, -146.5483
15.750000, 82.041, -147.3641
16.000000, 82.040, -148.1239
16.250000, 82.040, -148.8214
16.500000, 82.045, -149.4638
16.750000, 82.055, -150.0703
17.000000, 82.071, -150.6662
17.250000, 82.091, -151.2719
17.500000, 82.113, -151.8998
17.750000, 82.132, -152.5492
18.000000, 82.147, -153.2094
18.250000, 82.157, -153.8650
18.500000, 82.162, -154.5007
18.750000, 82.164, -155.1079
19.000000, 82.165, -155.6848
19.250000, 82.166, -156.2373
19.500000, 82.169, -156.7744
19.750000, 82.172, -157.3043
20.000000, 82.175, -157.8313
20.299999, 82.177, -158.4574
20.600000, 82.176, -159.0682
20.900000, 82.173, -159.6528
21.200001, 82.169, -160.2065
21.400000, 82.167, -160.5602
21.799999, 82.166, -161.2454
22.000000, 82.167, -161.5849
22.400000, 82.170, -162.2720
22.700001, 82.171, -162.7960
23.000000, 82.169, -163.3212
23.299999, 82.166, -163.8386
23.600000, 82.160, -164.3411
24.000000, 82.153, -164.9854
24.299999, 82.148, -165.4547
24.700001, 82.143, -166.0749
25.000000, 82.140, -166.5419
25.400000, 82.135, -167.1661
25.799999, 82.127, -167.7799
26.200001, 82.117, -168.3667
26.500000, 82.109, -168.7841
26.900000, 82.102, -169.3163
27.200001, 82.099, -169.7078
27.600000, 82.097, -170.2375
28.000000, 82.096, -170.7860
28.500000, 82.088, -171.4826
29.000000, 82.072, -172.1466
29.500000, 82.053, -172.7464
30.000000, 82.040, -173.3022
30.400000, 82.033, -173.7484
30.700001, 82.028, -174.0952
31.100000, 82.020, -174.5708
31.500000, 82.008, -175.0462
32.000000, 81.990, -175.6217
32.500000, 81.972, -176.1836
33.000000, 81.954, -176.7519
33.500000, 81.930, -177.3158
34.000000, 81.901, -177.8344
34.500000, 81.876, -178.2930
35.000000, 81.860, -178.7366
35.500000, 81.851, -179.2232
36.000000, 81.836, -179.7513
36.500000, 81.812, 179.7437
37.000000, 81.785, 179.3125
37.500000, 81.766, 178.9343
38.200001, 81.754, 178.3769
38.700001, 81.743, 177.9326
39.500000, 81.712, 177.2352
40.000000, 81.692, 176.8335
40.599998, 81.668, 176.3558
41.200001, 81.641, 175.8676
41.799999, 81.608, 175.3925
42.500000, 81.568, 174.8795
43.099998, 81.537, 174.4649
43.700001, 81.508, 174.0515
44.400002, 81.478, 173.5480
45.000000, 81.450, 173.1003
45.500000, 81.425, 172.7323
46.200001, 81.388, 172.2477
46.799999, 81.360, 171.8551
47.500000, 81.329, 171.3970
48.200001, 81.297, 170.9321
48.700001, 81.272, 170.6107
49.400002, 81.237, 170.1898
50.000000, 81.210, 169.8386
50.799999, 81.174, 169.3477
51.500000, 81.137, 168.9261
52.200001, 81.101, 168.5450
53.000000, 81.065, 168.1179
53.799999, 81.031, 167.6791
54.500000, 81.003, 167.2948
55.200001, 80.977, 166.8726
56.000000, 80.936, 166.3564
57.000000, 80.867, 165.8368
58.000000, 80.811, 165.4731
59.000000, 80.773, 165.0882
60.000000, 80.737, 164.5813
60.799999, 80.694, 164.1541
61.500000, 80.652, 163.8266
62.200001, 80.611, 163.5315
63.000000, 80.568, 163.2158
64.000000, 80.523, 162.8096
65.000000, 80.473, 162.3299
66.000000, 80.409, 161.9300
67.000000, 80.358, 161.6214
68.000000, 80.314, 161.2498
69.000000, 80.266, 160.8655
70.000000, 80.219, 160.4771
71.000000, 80.166, 160.0732
72.000000, 80.108, 159.7108
73.000000, 80.051, 159.4026
74.000000, 79.999, 159.1059
75.000000, 79.947, 158.8055
76.199997, 79.886, 158.4614
77.500000, 79.823, 158.0563
78.800003, 79.757, 157.6477
80.000000, 79.700, 157.2712
81.199997, 79.642, 156.8911
82.500000, 79.577, 156.5637
83.800003, 79.521, 156.2614
85.000000, 79.466, 155.9614
86.199997, 79.406, 155.6748
87.500000, 79.337, 155.3571
88.500000, 79.282, 155.1198
90.000000, 79.204, 154.7883
91.199997, 79.147, 154.5183
92.500000, 79.086, 154.2313
93.800003, 79.025, 153.9574
95.000000, 78.966, 153.7219
96.199997, 78.907, 153.5029
97.500000, 78.845, 153.2325
98.800003, 78.778, 152.9322
100.000000, 78.712, 152.7213
101.500000, 78.647, 152.5388
103.000000, 78.591, 152.2926
104.400002, 78.530, 152.0718
106.000000, 78.459, 151.8585
107.500000, 78.391, 151.6409
109.000000, 78.321, 151.4382
110.599998, 78.249, 151.2155
112.000000, 78.184, 151.0276
113.800003, 78.102, 150.8445
115.000000, 78.050, 150.7105
117.199997, 77.955, 150.4343
118.000000, 77.920, 150.3317
120.599998, 77.809, 150.0346
122.000000, 77.748, 149.8891
124.099998, 77.656, 149.7161
125.000000, 77.619, 149.6535
126.500000, 77.561, 149.5312
128.000000, 77.504, 149.3892
131.500000, 77.372, 149.0883
132.000000, 77.352, 149.0530
134.000000, 77.277, 148.9297
136.000000, 77.204, 148.7966
138.000000, 77.129, 148.6747
140.000000, 77.054, 148.5720
143.000000, 76.940, 148.4108
145.000000, 76.862, 148.3101
147.500000, 76.773, 148.2197
150.000000, 76.688, 148.1467
152.500000, 76.601, 148.0939
155.000000, 76.514, 148.0264
157.500000, 76.425, 147.9572
160.000000, 76.340, 147.9127
162.500000, 76.255, 147.8842
165.000000, 76.169, 147.8505
167.500000, 76.083, 147.8220
170.000000, 75.996, 147.8120
172.500000, 75.909, 147.8143
175.000000, 75.825, 147.8185
177.500000, 75.742, 147.8156
180.000000, 75.661, 147.8316
182.500000, 75.582, 147.8622
185.000000, 75.504, 147.8983
187.500000, 75.426, 147.9495
190.000000, 75.350, 148.0157
192.500000, 75.274, 148.0732
195.000000, 75.196, 148.1060
197.500000, 75.118, 148.1411
200.000000, 75.044, 148.2305
203.000000, 74.962, 148.3257
206.000000, 74.878, 148.3994
209.000000, 74.796, 148.4732
212.000000, 74.715, 148.5656
214.000000, 74.659, 148.6374
218.000000, 74.551, 148.7591
220.000000, 74.498, 148.8154
224.000000, 74.393, 148.9949
227.000000, 74.315, 149.1497
230.000000, 74.240, 149.2921
233.000000, 74.167, 149.4306
236.000000, 74.095, 149.5701
240.000000, 73.997, 149.7722
243.000000, 73.924, 149.9344
247.000000, 73.827, 150.1623
250.000000, 73.761, 150.3380
254.000000, 73.674, 150.5721
258.000000, 73.584, 150.7941
262.000000, 73.494, 150.9991
265.000000, 73.429, 151.1843
269.000000, 73.346, 151.4491
272.000000, 73.285, 151.6386
276.000000, 73.204, 151.9008
280.000000, 73.125, 152.1392
285.000000, 73.021, 152.4087
290.000000, 72.922, 152.8002
295.000000, 72.820, 153.2134
300.000000, 72.725, 153.6194
304.000000, 72.653, 153.9810
307.000000, 72.597, 154.2667
311.000000, 72.521, 154.6811
315.000000, 72.454, 155.1394
320.000000, 72.384, 155.7038
325.000000, 72.329, 156.2190
330.000000, 72.289, 156.6773
335.000000, 72.252, 157.0360
340.000000, 72.209, 157.3217
345.000000, 72.157, 157.5769
350.000000, 72.099, 157.8145
355.000000, 72.035, 158.0550
360.000000, 71.969, 158.3580
365.000000, 71.901, 158.7026
370.000000, 71.830, 159.0492
375.000000, 71.762, 159.3943
382.000000, 71.673, 159.8849
387.000000, 71.610, 160.2521
395.000000, 71.512, 160.8606
400.000000, 71.454, 161.2555
406.000000, 71.383, 161.7454
412.000000, 71.315, 162.2366
418.000000, 71.249, 162.7184
425.000000, 71.174, 163.2886
431.000000, 71.113, 163.7901
437.000000, 71.052, 164.2743
444.000000, 70.983, 164.8588
450.000000, 70.925, 165.3724
455.000000, 70.875, 165.8037
462.000000, 70.809, 166.3920
468.000000, 70.754, 166.8948
475.000000, 70.691, 167.4894
482.000000, 70.629, 168.1031
487.000000, 70.587, 168.5505
494.000000, 70.527, 169.1943
500.000000, 70.476, 169.7506
508.000000, 70.412, 170.4920
515.000000, 70.357, 171.1411
522.000000, 70.302, 171.8074
530.000000, 70.243, 172.5792
538.000000, 70.188, 173.3521
545.000000, 70.139, 174.0497
552.000000, 70.093, 174.7578
560.000000, 70.043, 175.5905
570.000000, 69.981, 176.6605
580.000000, 69.926, 177.7678
590.000000, 69.873, 178.9195
600.000000, 69.828, -179.8743
608.000000, 69.797, -178.8736
615.000000, 69.777, -177.9855
622.000000, 69.761, -177.0813
630.000000, 69.750, -176.0188
640.000000, 69.747, -174.6655
650.000000, 69.762, -173.2878
660.000000, 69.795, -171.9227
670.000000, 69.850, -170.5985
680.000000, 69.921, -169.3534
690.000000, 70.004, -168.1885
700.000000, 70.099, -167.1067
710.000000, 70.200, -166.1443
720.000000, 70.305, -165.3084
730.000000, 70.407, -164.5845
740.000000, 70.502, -163.9553
750.000000, 70.592, -163.3967
762.000000, 70.691, -162.7722
775.000000, 70.784, -162.1320
788.000000, 70.865, -161.5264
800.000000, 70.932, -160.9624
812.000000, 70.989, -160.3817
825.000000, 71.044, -159.7243
838.000000, 71.099, -159.0419
850.000000, 71.151, -158.4077
862.000000, 71.205, -157.7704
875.000000, 71.264, -157.0732
885.000000, 71.311, -156.5257
900.000000, 71.386, -155.6926
912.000000, 71.451, -155.0349
925.000000, 71.524, -154.3410
938.000000, 71.601, -153.6590
950.000000, 71.675, -153.0444
962.000000, 71.754, -152.4461
975.000000, 71.842, -151.8142
988.000000, 71.932, -151.2039
1000.000000, 72.019, -150.6689
1015.000000, 72.132, -150.0332
1030.000000, 72.247, -149.4366
1044.000000, 72.358, -148.9113
1060.000000, 72.485, -148.3471
1075.000000, 72.604, -147.8617
1090.000000, 72.723, -147.4134
1106.000000, 72.851, -146.9718
1120.000000, 72.961, -146.6128
1138.000000, 73.101, -146.1890
1150.000000, 73.193, -145.9280
1172.000000, 73.360, -145.4908
1180.000000, 73.419, -145.3472
1206.000000, 73.611, -144.9102
1220.000000, 73.712, -144.6894
1241.000000, 73.862, -144.3905
1250.000000, 73.926, -144.2717
1265.000000, 74.034, -144.0812
1280.000000, 74.143, -143.8990
1315.000000, 74.394, -143.5087
1320.000000, 74.429, -143.4551
1340.000000, 74.569, -143.2467
1360.000000, 74.708, -143.0566
1380.000000, 74.847, -142.8776
1400.000000, 74.986, -142.7094
1430.000000, 75.194, -142.4840
1450.000000, 75.333, -142.3449
1475.000000, 75.508, -142.1918
1500.000000, 75.682, -142.0598
1525.000000, 75.856, -141.9472
1550.000000, 76.033, -141.8610
1575.000000, 76.212, -141.8112
1600.000000, 76.393, -141.7963
1625.000000, 76.575, -141.8117
1650.000000, 76.759, -141.8614
1675.000000, 76.943, -141.9484
1700.000000, 77.128, -142.0794
1725.000000, 77.315, -142.2532
1750.000000, 77.501, -142.4742
1775.000000, 77.687, -142.7406
1800.000000, 77.873, -143.0542
1825.000000, 78.057, -143.4203
1850.000000, 78.241, -143.8388
1875.000000, 78.422, -144.3091
1900.000000, 78.601, -144.8323
1925.000000, 78.776, -145.4129
1950.000000, 78.948, -146.0492
1975.000000, 79.116, -146.7380
2000.000000, 79.279, -147.4786
2030.000000, 79.466, -148.4334
2060.000000, 79.645, -149.4603
2090.000000, 79.813, -150.5548
2120.000000, 79.970, -151.7045
2140.000000, 80.067, -152.4993
2180.000000, 80.244, -154.1515
2200.000000, 80.323, -155.0025
2240.000000, 80.463, -156.7432
2270.000000, 80.551, -158.0712
2300.000000, 80.624, -159.4061
2330.000000, 80.682, -160.7398
2360.000000, 80.725, -162.0663
2400.000000, 80.761, -163.8057
2430.000000, 80.773, -165.0727
2470.000000, 80.770, -166.6979
2500.000000, 80.753, -167.8599
2540.000000, 80.713, -169.3286
2580.000000, 80.658, -170.6934
2620.000000, 80.590, -171.9466
2650.000000, 80.534, -172.8124
2690.000000, 80.452, -173.8707
2720.000000, 80.387, -174.5918
2760.000000, 80.298, -175.4566
2800.000000, 80.208, -176.2176
2850.000000, 80.095, -177.0313
2900.000000, 79.986, -177.6974
2950.000000, 79.883, -178.2316
3000.000000, 79.789, -178.6512
3040.000000, 79.721, -178.9117
3070.000000, 79.675, -179.0681
3110.000000, 79.620, -179.2292
3150.000000, 79.576, -179.3396
3200.000000, 79.540, -179.4166
3250.000000, 79.523, -179.4343
3300.000000, 79.525, -179.4049
3350.000000, 79.549, -179.3540
3400.000000, 79.597, -179.3186
3450.000000, 79.671, -179.3515
3500.000000, 79.765, -179.4972
3550.000000, 79.873, -179.7883
3600.000000, 79.990, 179.7693
3650.000000, 80.111, 179.1846
3700.000000, 80.234, 178.4650
3750.000000, 80.357, 177.6038
3820.000000, 80.524, 176.1413
3870.000000, 80.632, 174.9056
3950.000000, 80.772, 172.6451
4000.000000, 80.826, 171.1118
4060.000000, 80.856, 169.2066
4120.000000, 80.863, 167.2255
4180.000000, 80.858, 165.1100
4250.000000, 80.829, 162.3901
4310.000000, 80.767, 159.8226
4370.000000, 80.655, 157.0845
4440.000000, 80.449, 153.7922
4500.000000, 80.206, 150.9997
4550.000000, 79.958, 148.7623
4620.000000, 79.547, 145.8582
4680.000000, 79.145, 143.6404
4750.000000, 78.630, 141.4227
4820.000000, 78.079, 139.6356
4870.000000, 77.671, 138.6294
4940.000000, 77.091, 137.5877
5000.000000, 76.595, 137.0187
5080.000000, 75.949, 136.6931
5150.000000, 75.400, 136.7780
5220.000000, 74.868, 137.1658
5300.000000, 74.284, 137.9222
5380.000000, 73.726, 138.9671
5450.000000, 73.260, 140.0917
5520.000000, 72.812, 141.3984
5600.000000, 72.325, 143.1079
5700.000000, 71.753, 145.5631
5800.000000, 71.230, 148.3687
5900.000000, 70.765, 151.4650
6000.000000, 70.360, 154.7532
6080.000000, 70.079, 157.4874
6150.000000, 69.861, 159.9395
6220.000000, 69.670, 162.4361
6300.000000, 69.481, 165.3345
6400.000000, 69.288, 169.0079
6500.000000, 69.144, 172.7273
6600.000000, 69.048, 176.4623
6700.000000, 69.003, -179.8011
6800.000000, 69.008, -176.0695
6900.000000, 69.067, -172.3502
7000.000000, 69.181, -168.6639
7100.000000, 69.353, -165.0495
7200.000000, 69.583, -161.5499
7300.000000, 69.869, -158.1862
7400.000000, 70.213, -154.9608
7500.000000, 70.621, -151.9057
7620.000000, 71.207, -148.5235
7750.000000, 71.970, -145.3474
7880.000000, 72.877, -142.8914
8000.000000, 73.848, -141.5451
8120.000000, 74.945, -141.4781
8250.000000, 76.247, -143.4568
8380.000000, 77.568, -148.3047
8500.000000, 78.620, -155.7183
8620.000000, 79.291, -165.5635
8750.000000, 79.409, -177.4421
8850.000000, 79.058, 173.9322
9000.000000, 78.016, 163.7261
9120.000000, 76.976, 158.4110
9250.000000, 75.855, 155.1536
9380.000000, 74.855, 153.7652
9500.000000, 74.076, 153.5194
9620.000000, 73.439, 153.7986
9750.000000, 72.895, 154.2908
9880.000000, 72.478, 154.6356
10000.000000, 72.171, 154.5762
10150.000000, 71.827, 153.7653
10300.000000, 71.439, 152.1227
10440.000000, 70.952, 150.1983
10600.000000, 70.210, 148.4518
10750.000000, 69.416, 148.1812
10900.000000, 68.716, 149.3667
11060.000000, 68.234, 150.9727
11200.000000, 67.986, 151.3154
11380.000000, 67.638, 149.7032
11500.000000, 67.257, 147.8739
11720.000000, 66.181, 144.8563
11800.000000, 65.697, 144.2289
12060.000000, 63.986, 144.5034
12200.000000, 63.067, 145.9882
12410.000000, 61.783, 149.5417
12500.000000, 61.281, 151.4258
12650.000000, 60.514, 154.9034
12800.000000, 59.828, 158.7087
13150.000000, 58.495, 168.3705
13200.000000, 58.333, 169.8133
13400.000000, 57.744, 175.7141
13600.000000, 57.250, -178.2560
13800.000000, 56.846, -172.1808
14000.000000, 56.528, -166.0020
14300.000000, 56.215, -156.6251
14500.000000, 56.125, -150.3862
14750.000000, 56.158, -142.7210
15000.000000, 56.356, -135.2827
15250.000000, 56.735, -128.2379
15500.000000, 57.311, -121.8561
15750.000000, 58.096, -116.5421
16000.000000, 59.092, -112.8470
16250.000000, 60.262, -111.3316
16500.000000, 61.467, -112.5094
16750.000000, 62.508, -116.5654
17000.000000, 63.193, -122.8493
17250.000000, 63.430, -129.9664
17500.000000, 63.284, -136.4666
17750.000000, 62.940, -141.6827
18000.000000, 62.581, -146.0393
18250.000000, 62.271, -150.7264
18500.000000, 61.892, -156.9199
18750.000000, 61.180, -164.8123
19000.000000, 59.893, -173.0079
19250.000000, 57.984, -179.2604
19500.000000, 55.628, 178.1453
19750.000000, 53.193, 179.5988
20000.000000, 51.516, -176.7958
