* Measurement data measured by REW V5.31.1
* Source: CUBILUX HLMS-C5 MIC IN, MICROPHONE, R, volume: 1.000
* Format: 4M Log Swept Sine, 1 sweep at -35.0 dBFS with no timing reference
* Dated: Oct 4, 2024 2:07:37 PM
* REW Settings:
*  C-weighting compensation: Off
*  Target level: 75.0 dB
* Note: ; 
* Measurement: Elysian Diva (white) L
* Smoothing: 1/24 octave
* Frequency Step: 1/48 octave
* Start Frequency: 1.000 Hz
*
* Freq(Hz), SPL(dB), Phase(degrees)
1.000000, 64.130, 12.9238
1.015000, 64.364, 11.6589
1.030000, 64.594, 10.4185
1.044000, 64.804, 9.2797
1.060000, 65.040, 7.9973
1.075000, 65.257, 6.8101
1.090000, 65.468, 5.6338
1.106000, 65.687, 4.3865
1.120000, 65.876, 3.2975
1.138000, 66.115, 1.9011
1.150000, 66.273, 0.9741
1.172000, 66.557, -0.7131
1.180000, 66.659, -1.3217
1.206000, 66.986, -3.2774
1.220000, 67.159, -4.3145
1.241000, 67.414, -5.8465
1.250000, 67.523, -6.4939
1.265000, 67.701, -7.5600
1.280000, 67.878, -8.6094
1.315000, 68.281, -10.9910
1.320000, 68.338, -11.3234
1.340000, 68.562, -12.6332
1.360000, 68.783, -13.9115
1.380000, 69.001, -15.1584
1.400000, 69.216, -16.3744
1.430000, 69.532, -18.1423
1.450000, 69.739, -19.2853
1.475000, 69.993, -20.6803
1.500000, 70.242, -22.0511
1.525000, 70.484, -23.4026
1.550000, 70.720, -24.7344
1.575000, 70.950, -26.0459
1.600000, 71.175, -27.3368
1.625000, 71.394, -28.6071
1.650000, 71.609, -29.8573
1.675000, 71.819, -31.0878
1.700000, 72.025, -32.2996
1.725000, 72.227, -33.4938
1.750000, 72.425, -34.6714
1.775000, 72.619, -35.8340
1.800000, 72.811, -36.9830
1.825000, 73.000, -38.1213
1.850000, 73.185, -39.2555
1.875000, 73.366, -40.3918
1.900000, 73.542, -41.5296
1.925000, 73.714, -42.6657
1.950000, 73.882, -43.7969
1.975000, 74.047, -44.9203
2.000000, 74.207, -46.0336
2.030000, 74.395, -47.3531
2.060000, 74.578, -48.6520
2.090000, 74.757, -49.9278
2.120000, 74.932, -51.1788
2.140000, 75.047, -51.9984
2.180000, 75.271, -53.6032
2.200000, 75.381, -54.3913
2.240000, 75.596, -55.9579
2.270000, 75.751, -57.1316
2.300000, 75.902, -58.3019
2.330000, 76.048, -59.4655
2.360000, 76.191, -60.6191
2.400000, 76.375, -62.1365
2.430000, 76.509, -63.2556
2.470000, 76.682, -64.7181
2.500000, 76.809, -65.7904
2.540000, 76.974, -67.1853
2.580000, 77.134, -68.5468
2.620000, 77.288, -69.8950
2.650000, 77.400, -70.9020
2.690000, 77.543, -72.2366
2.720000, 77.647, -73.2286
2.760000, 77.782, -74.5352
2.800000, 77.911, -75.8191
2.850000, 78.067, -77.3852
2.900000, 78.218, -78.9015
2.950000, 78.363, -80.3718
3.000000, 78.502, -81.8189
3.040000, 78.607, -82.9657
3.070000, 78.684, -83.8179
3.110000, 78.782, -84.9406
3.150000, 78.877, -86.0449
3.200000, 78.992, -87.3938
3.250000, 79.103, -88.7018
3.300000, 79.210, -89.9665
3.350000, 79.313, -91.1980
3.400000, 79.412, -92.4070
3.450000, 79.505, -93.5941
3.500000, 79.595, -94.7574
3.550000, 79.682, -95.8943
3.600000, 79.766, -97.0020
3.650000, 79.849, -98.0784
3.700000, 79.929, -99.1262
3.750000, 80.006, -100.1508
3.820000, 80.109, -101.5509
3.870000, 80.180, -102.5266
3.950000, 80.290, -104.0444
4.000000, 80.357, -104.9651
4.060000, 80.436, -106.0420
4.120000, 80.513, -107.0912
4.180000, 80.587, -108.1158
4.250000, 80.671, -109.2827
4.310000, 80.742, -110.2604
4.370000, 80.811, -111.2186
4.440000, 80.890, -112.3135
4.500000, 80.956, -113.2331
4.550000, 81.010, -113.9869
4.620000, 81.083, -115.0239
4.680000, 81.145, -115.8966
4.750000, 81.214, -116.8972
4.820000, 81.282, -117.8807
4.870000, 81.329, -118.5737
4.940000, 81.393, -119.5305
5.000000, 81.446, -120.3374
5.080000, 81.515, -121.3931
5.150000, 81.572, -122.2985
5.220000, 81.627, -123.1895
5.300000, 81.687, -124.1910
5.380000, 81.745, -125.1721
5.450000, 81.793, -126.0115
5.520000, 81.839, -126.8326
5.600000, 81.890, -127.7512
5.700000, 81.950, -128.8718
5.800000, 82.007, -129.9594
5.900000, 82.062, -131.0116
6.000000, 82.114, -132.0303
6.080000, 82.155, -132.8238
6.150000, 82.189, -133.5041
6.220000, 82.224, -134.1716
6.300000, 82.263, -134.9188
6.400000, 82.311, -135.8300
6.500000, 82.359, -136.7215
6.600000, 82.406, -137.5988
6.700000, 82.453, -138.4623
6.800000, 82.500, -139.3128
6.900000, 82.546, -140.1545
7.000000, 82.591, -140.9913
7.100000, 82.635, -141.8234
7.200000, 82.678, -142.6501
7.300000, 82.719, -143.4711
7.400000, 82.757, -144.2879
7.500000, 82.793, -145.1008
7.620000, 82.834, -146.0663
7.750000, 82.874, -147.0956
7.880000, 82.909, -148.1089
8.000000, 82.938, -149.0254
8.120000, 82.964, -149.9188
8.250000, 82.990, -150.8621
8.380000, 83.013, -151.7791
8.500000, 83.033, -152.6004
8.620000, 83.052, -153.3988
8.750000, 83.072, -154.2421
8.850000, 83.088, -154.8770
9.000000, 83.111, -155.8081
9.120000, 83.131, -156.5402
9.250000, 83.152, -157.3245
9.380000, 83.173, -158.1004
9.500000, 83.193, -158.8120
9.620000, 83.212, -159.5211
9.750000, 83.232, -160.2862
9.880000, 83.245, -161.0466
10.000000, 83.248, -161.7447
10.150000, 83.242, -162.6102
10.300000, 83.229, -163.4632
10.440000, 83.211, -164.2470
10.600000, 83.188, -165.1256
10.750000, 83.165, -165.9299
10.900000, 83.142, -166.7162
11.060000, 83.117, -167.5358
11.200000, 83.096, -168.2375
11.380000, 83.070, -169.1236
11.500000, 83.053, -169.7059
11.720000, 83.024, -170.7612
11.800000, 83.014, -171.1425
12.060000, 82.981, -172.3760
12.200000, 82.963, -173.0381
12.410000, 82.939, -174.0285
12.500000, 82.932, -174.4514
12.650000, 82.923, -175.1538
12.800000, 82.916, -175.8516
13.150000, 82.899, -177.4549
13.200000, 82.897, -177.6804
13.400000, 82.884, -178.5724
13.600000, 82.869, -179.4476
13.800000, 82.853, 179.6949
14.000000, 82.835, 178.8550
14.300000, 82.808, 177.6272
14.500000, 82.788, 176.8288
14.750000, 82.763, 175.8520
15.000000, 82.737, 174.8971
15.250000, 82.712, 173.9622
15.500000, 82.685, 173.0452
15.750000, 82.660, 172.1439
16.000000, 82.636, 171.2555
16.250000, 82.615, 170.3765
16.500000, 82.596, 169.5034
16.750000, 82.577, 168.6325
17.000000, 82.557, 167.7617
17.250000, 82.536, 166.8911
17.500000, 82.513, 166.0230
17.750000, 82.488, 165.1631
18.000000, 82.460, 164.3173
18.250000, 82.430, 163.4910
18.500000, 82.401, 162.6866
18.750000, 82.372, 161.9018
19.000000, 82.345, 161.1306
19.250000, 82.320, 160.3639
19.500000, 82.297, 159.5931
19.750000, 82.275, 158.8134
20.000000, 82.251, 158.0245
20.299999, 82.220, 157.0737
20.600000, 82.185, 156.1330
20.900000, 82.146, 155.2179
21.200001, 82.105, 154.3375
21.400000, 82.078, 153.7699
21.799999, 82.026, 152.6700
22.000000, 82.001, 152.1311
22.400000, 81.954, 151.0615
22.700001, 81.919, 150.2626
23.000000, 81.883, 149.4686
23.299999, 81.846, 148.6827
23.600000, 81.809, 147.9069
24.000000, 81.760, 146.8854
24.299999, 81.722, 146.1245
24.700001, 81.671, 145.1125
25.000000, 81.632, 144.3563
25.400000, 81.576, 143.3579
25.799999, 81.518, 142.3778
26.200001, 81.459, 141.4185
26.500000, 81.415, 140.7106
26.900000, 81.355, 139.7786
27.200001, 81.310, 139.0870
27.600000, 81.250, 138.1770
28.000000, 81.188, 137.2849
28.500000, 81.112, 136.1973
29.000000, 81.040, 135.1273
29.500000, 80.969, 134.0503
30.000000, 80.896, 132.9568
30.400000, 80.833, 132.0881
30.700001, 80.782, 131.4566
31.100000, 80.712, 130.6548
31.500000, 80.646, 129.8951
32.000000, 80.571, 128.9632
32.500000, 80.500, 128.0017
33.000000, 80.423, 127.0137
33.500000, 80.339, 126.0528
34.000000, 80.253, 125.1484
34.500000, 80.175, 124.2628
35.000000, 80.098, 123.3441
35.500000, 80.012, 122.4112
36.000000, 79.917, 121.5438
36.500000, 79.827, 120.7818
37.000000, 79.755, 120.0568
37.500000, 79.699, 119.2510
38.200001, 79.609, 117.9391
38.700001, 79.522, 117.0033
39.500000, 79.373, 115.7342
40.000000, 79.295, 115.0207
40.599998, 79.212, 114.1019
41.200001, 79.119, 113.1153
41.799999, 79.008, 112.1871
42.500000, 78.881, 111.2690
43.099998, 78.788, 110.5355
43.700001, 78.705, 109.7457
44.400002, 78.603, 108.7537
45.000000, 78.507, 107.9139
45.500000, 78.425, 107.2454
46.200001, 78.314, 106.3363
46.799999, 78.220, 105.5591
47.500000, 78.109, 104.6604
48.200001, 77.996, 103.8032
48.700001, 77.917, 103.2251
49.400002, 77.814, 102.4353
50.000000, 77.729, 101.7419
50.799999, 77.612, 100.8045
51.500000, 77.505, 100.0265
52.200001, 77.401, 99.2912
53.000000, 77.286, 98.4595
53.799999, 77.170, 97.6327
54.500000, 77.070, 96.9181
55.200001, 76.970, 96.2041
56.000000, 76.854, 95.3968
57.000000, 76.707, 94.4376
58.000000, 76.563, 93.5620
59.000000, 76.432, 92.7171
60.000000, 76.304, 91.8542
60.799999, 76.200, 91.1699
61.500000, 76.108, 90.5795
62.200001, 76.014, 90.0089
63.000000, 75.907, 89.3845
64.000000, 75.776, 88.5937
65.000000, 75.639, 87.8376
66.000000, 75.512, 87.1537
67.000000, 75.393, 86.4132
68.000000, 75.264, 85.7022
69.000000, 75.144, 85.0947
70.000000, 75.036, 84.4529
71.000000, 74.922, 83.7851
72.000000, 74.805, 83.1843
73.000000, 74.693, 82.6224
74.000000, 74.584, 82.0494
75.000000, 74.473, 81.4838
76.199997, 74.343, 80.8277
77.500000, 74.205, 80.1195
78.800003, 74.070, 79.4188
80.000000, 73.949, 78.8069
81.199997, 73.834, 78.2294
82.500000, 73.716, 77.6244
83.800003, 73.600, 77.0080
85.000000, 73.483, 76.4818
86.199997, 73.371, 76.0477
87.500000, 73.261, 75.5359
88.500000, 73.173, 75.0912
90.000000, 73.036, 74.4917
91.199997, 72.938, 74.0843
92.500000, 72.848, 73.6660
93.800003, 72.772, 73.1902
95.000000, 72.691, 72.6957
96.199997, 72.602, 72.3037
97.500000, 72.517, 71.9402
98.800003, 72.438, 71.5207
100.000000, 72.360, 71.1164
101.500000, 72.265, 70.6750
103.000000, 72.175, 70.2700
104.400002, 72.094, 69.8963
106.000000, 72.002, 69.4464
107.500000, 71.914, 69.0214
109.000000, 71.832, 68.6074
110.599998, 71.758, 68.1795
112.000000, 71.697, 67.7869
113.800003, 71.613, 67.3408
115.000000, 71.557, 67.0705
117.199997, 71.458, 66.5419
118.000000, 71.423, 66.3297
120.599998, 71.318, 65.6788
122.000000, 71.270, 65.3668
124.099998, 71.203, 64.9848
125.000000, 71.178, 64.8206
126.500000, 71.133, 64.5076
128.000000, 71.086, 64.1957
131.500000, 70.989, 63.4648
132.000000, 70.976, 63.3644
134.000000, 70.925, 62.9863
136.000000, 70.876, 62.6479
138.000000, 70.833, 62.2747
140.000000, 70.792, 61.8537
143.000000, 70.739, 61.2182
145.000000, 70.700, 60.8169
147.500000, 70.654, 60.3753
150.000000, 70.610, 59.8907
152.500000, 70.573, 59.4478
155.000000, 70.543, 59.0489
157.500000, 70.512, 58.6355
160.000000, 70.476, 58.2072
162.500000, 70.446, 57.7574
165.000000, 70.415, 57.3442
167.500000, 70.383, 57.0057
170.000000, 70.353, 56.6106
172.500000, 70.322, 56.1606
175.000000, 70.295, 55.7526
177.500000, 70.271, 55.3687
180.000000, 70.249, 54.9872
182.500000, 70.229, 54.6182
185.000000, 70.213, 54.2455
187.500000, 70.194, 53.8513
190.000000, 70.174, 53.4694
192.500000, 70.158, 53.1147
195.000000, 70.145, 52.7553
197.500000, 70.129, 52.4175
200.000000, 70.115, 52.1104
203.000000, 70.104, 51.6980
206.000000, 70.093, 51.2652
209.000000, 70.082, 50.8629
212.000000, 70.068, 50.4811
214.000000, 70.058, 50.2307
218.000000, 70.042, 49.7398
220.000000, 70.037, 49.4993
224.000000, 70.030, 49.0252
227.000000, 70.022, 48.6743
230.000000, 70.015, 48.3204
233.000000, 70.008, 47.9801
236.000000, 70.003, 47.6464
240.000000, 69.995, 47.1774
243.000000, 69.989, 46.8352
247.000000, 69.983, 46.4201
250.000000, 69.979, 46.1249
254.000000, 69.973, 45.7236
258.000000, 69.968, 45.3032
262.000000, 69.962, 44.9166
265.000000, 69.958, 44.6645
269.000000, 69.956, 44.2936
272.000000, 69.958, 44.0137
276.000000, 69.962, 43.6301
280.000000, 69.963, 43.2407
285.000000, 69.961, 42.8391
290.000000, 69.954, 42.4998
295.000000, 69.956, 42.0875
300.000000, 69.968, 41.6966
304.000000, 69.977, 41.4555
307.000000, 69.977, 41.2517
311.000000, 69.971, 40.9229
315.000000, 69.968, 40.6026
320.000000, 69.969, 40.2437
325.000000, 69.972, 39.8980
330.000000, 69.975, 39.6046
335.000000, 69.983, 39.3367
340.000000, 69.986, 39.0554
345.000000, 69.985, 38.7289
350.000000, 69.987, 38.4292
355.000000, 69.993, 38.1635
360.000000, 70.002, 37.9041
365.000000, 70.010, 37.5200
370.000000, 69.998, 37.2043
375.000000, 69.999, 37.0519
382.000000, 70.011, 36.8497
387.000000, 70.017, 36.6593
395.000000, 70.023, 36.3726
400.000000, 70.022, 36.1993
406.000000, 70.025, 35.9832
412.000000, 70.030, 35.7920
418.000000, 70.035, 35.5900
425.000000, 70.040, 35.3835
431.000000, 70.041, 35.2872
437.000000, 70.050, 35.2453
444.000000, 70.058, 35.0653
450.000000, 70.069, 34.8477
455.000000, 70.077, 34.7421
462.000000, 70.075, 34.6278
468.000000, 70.060, 34.4687
475.000000, 69.991, 34.2801
482.000000, 69.991, 34.1473
487.000000, 70.073, 34.0797
494.000000, 70.148, 34.3307
500.000000, 70.169, 34.4330
508.000000, 70.198, 34.4059
515.000000, 70.235, 34.3284
522.000000, 70.275, 34.2169
530.000000, 70.313, 34.0500
538.000000, 70.342, 33.8671
545.000000, 70.363, 33.7048
552.000000, 70.382, 33.5649
560.000000, 70.402, 33.4487
570.000000, 70.421, 33.3271
580.000000, 70.435, 33.1787
590.000000, 70.450, 33.1242
600.000000, 70.483, 33.1584
608.000000, 70.505, 33.1654
615.000000, 70.524, 33.1648
622.000000, 70.543, 33.1749
630.000000, 70.564, 33.1985
640.000000, 70.592, 33.2400
650.000000, 70.622, 33.2954
660.000000, 70.654, 33.3629
670.000000, 70.685, 33.4379
680.000000, 70.717, 33.5284
690.000000, 70.750, 33.6373
700.000000, 70.786, 33.7578
710.000000, 70.824, 33.8899
720.000000, 70.863, 34.0264
730.000000, 70.905, 34.1644
740.000000, 70.949, 34.3163
750.000000, 70.994, 34.4751
762.000000, 71.051, 34.6699
775.000000, 71.117, 34.8966
788.000000, 71.185, 35.1262
800.000000, 71.247, 35.3436
812.000000, 71.311, 35.5638
825.000000, 71.383, 35.8017
838.000000, 71.458, 36.0361
850.000000, 71.531, 36.2525
862.000000, 71.607, 36.4647
875.000000, 71.695, 36.6815
885.000000, 71.765, 36.8394
900.000000, 71.875, 37.0651
912.000000, 71.966, 37.2308
925.000000, 72.069, 37.3826
938.000000, 72.176, 37.5116
950.000000, 72.278, 37.6130
962.000000, 72.382, 37.6926
975.000000, 72.497, 37.7491
988.000000, 72.615, 37.7771
1000.000000, 72.726, 37.7762
1015.000000, 72.868, 37.7344
1030.000000, 73.011, 37.6507
1044.000000, 73.144, 37.5323
1060.000000, 73.296, 37.3511
1075.000000, 73.437, 37.1420
1090.000000, 73.576, 36.8940
1106.000000, 73.721, 36.5925
1120.000000, 73.845, 36.2945
1138.000000, 74.001, 35.8716
1150.000000, 74.102, 35.5722
1172.000000, 74.283, 34.9913
1180.000000, 74.346, 34.7720
1206.000000, 74.547, 34.0243
1220.000000, 74.652, 33.6008
1241.000000, 74.804, 32.9405
1250.000000, 74.869, 32.6449
1265.000000, 74.975, 32.1374
1280.000000, 75.077, 31.6189
1315.000000, 75.298, 30.3857
1320.000000, 75.327, 30.2096
1340.000000, 75.442, 29.5101
1360.000000, 75.550, 28.8197
1380.000000, 75.652, 28.1382
1400.000000, 75.751, 27.4659
1430.000000, 75.891, 26.4813
1450.000000, 75.980, 25.8391
1475.000000, 76.087, 25.0529
1500.000000, 76.190, 24.2877
1525.000000, 76.289, 23.5377
1550.000000, 76.386, 22.8040
1575.000000, 76.480, 22.0886
1600.000000, 76.570, 21.3879
1625.000000, 76.659, 20.7001
1650.000000, 76.745, 20.0317
1675.000000, 76.829, 19.3819
1700.000000, 76.910, 18.7449
1725.000000, 76.991, 18.1220
1750.000000, 77.073, 17.5108
1775.000000, 77.156, 16.9077
1800.000000, 77.239, 16.3091
1825.000000, 77.323, 15.7110
1850.000000, 77.404, 15.1093
1875.000000, 77.483, 14.5070
1900.000000, 77.560, 13.9094
1925.000000, 77.638, 13.3171
1950.000000, 77.716, 12.7327
1975.000000, 77.794, 12.1575
2000.000000, 77.872, 11.5900
2030.000000, 77.966, 10.9154
2060.000000, 78.061, 10.2446
2090.000000, 78.157, 9.5768
2120.000000, 78.255, 8.9108
2140.000000, 78.321, 8.4661
2180.000000, 78.458, 7.5769
2200.000000, 78.527, 7.1300
2240.000000, 78.669, 6.2219
2270.000000, 78.778, 5.5228
2300.000000, 78.892, 4.8037
2330.000000, 79.010, 4.0587
2360.000000, 79.132, 3.2788
2400.000000, 79.298, 2.1709
2430.000000, 79.426, 1.2753
2470.000000, 79.599, -0.0247
2500.000000, 79.727, -1.0898
2540.000000, 79.891, -2.6464
2580.000000, 80.043, -4.3698
2620.000000, 80.176, -6.2537
2650.000000, 80.258, -7.7618
2690.000000, 80.337, -9.8694
2720.000000, 80.371, -11.4891
2760.000000, 80.382, -13.6443
2800.000000, 80.354, -15.7291
2850.000000, 80.272, -18.1526
2900.000000, 80.151, -20.3024
2950.000000, 80.007, -22.1490
3000.000000, 79.853, -23.7069
3040.000000, 79.730, -24.7668
3070.000000, 79.641, -25.4683
3110.000000, 79.528, -26.2991
3150.000000, 79.425, -27.0321
3200.000000, 79.312, -27.8392
3250.000000, 79.212, -28.5527
3300.000000, 79.121, -29.1918
3350.000000, 79.038, -29.7670
3400.000000, 78.964, -30.2861
3450.000000, 78.897, -30.7514
3500.000000, 78.839, -31.1647
3550.000000, 78.793, -31.5327
3600.000000, 78.759, -31.8693
3650.000000, 78.739, -32.1978
3700.000000, 78.731, -32.5400
3750.000000, 78.735, -32.9195
3820.000000, 78.756, -33.5342
3870.000000, 78.782, -34.0503
3950.000000, 78.833, -35.0404
4000.000000, 78.861, -35.7777
4060.000000, 78.879, -36.7962
4120.000000, 78.883, -37.9635
4180.000000, 78.874, -39.2758
4250.000000, 78.842, -40.9737
4310.000000, 78.791, -42.5569
4370.000000, 78.715, -44.2371
4440.000000, 78.589, -46.2849
4500.000000, 78.444, -48.0779
4550.000000, 78.295, -49.5700
4620.000000, 78.042, -51.6087
4680.000000, 77.785, -53.2606
4750.000000, 77.440, -55.0219
4820.000000, 77.055, -56.5532
4870.000000, 76.760, -57.4770
4940.000000, 76.323, -58.5052
5000.000000, 75.937, -59.1263
5080.000000, 75.415, -59.5707
5150.000000, 74.958, -59.5988
5220.000000, 74.504, -59.2996
5300.000000, 73.997, -58.5766
5380.000000, 73.509, -57.4766
5450.000000, 73.104, -56.2329
5520.000000, 72.723, -54.7518
5600.000000, 72.320, -52.8081
5700.000000, 71.866, -50.0614
5800.000000, 71.469, -47.0327
5900.000000, 71.128, -43.7678
6000.000000, 70.849, -40.3047
6080.000000, 70.672, -37.4543
6150.000000, 70.549, -34.9290
6220.000000, 70.453, -32.3900
6300.000000, 70.375, -29.4877
6400.000000, 70.322, -25.8809
6500.000000, 70.316, -22.3347
6600.000000, 70.357, -18.8718
6700.000000, 70.442, -15.5153
6800.000000, 70.572, -12.2751
6900.000000, 70.745, -9.1692
7000.000000, 70.960, -6.2192
7100.000000, 71.218, -3.4520
7200.000000, 71.517, -0.9227
7300.000000, 71.852, 1.3236
7400.000000, 72.218, 3.2595
7500.000000, 72.612, 4.8546
7620.000000, 73.117, 6.2679
7750.000000, 73.692, 7.0916
7880.000000, 74.275, 7.0712
8000.000000, 74.792, 6.2115
8120.000000, 75.252, 4.4807
8250.000000, 75.644, 1.6367
8380.000000, 75.873, -2.0359
8500.000000, 75.900, -5.8362
8620.000000, 75.732, -9.6157
8750.000000, 75.347, -13.2011
8850.000000, 74.934, -15.3463
9000.000000, 74.191, -17.3060
9120.000000, 73.548, -17.7261
9250.000000, 72.858, -17.0900
9380.000000, 72.221, -15.5060
9500.000000, 71.702, -13.4426
9620.000000, 71.249, -10.9949
9750.000000, 70.828, -8.0228
9880.000000, 70.474, -4.7791
10000.000000, 70.209, -1.6093
10150.000000, 69.961, 2.4510
10300.000000, 69.798, 6.4752
10440.000000, 69.708, 10.1438
10600.000000, 69.666, 14.2941
10750.000000, 69.693, 18.1897
10900.000000, 69.794, 22.0256
11060.000000, 69.996, 25.9180
11200.000000, 70.251, 29.0237
11380.000000, 70.684, 32.3942
11500.000000, 71.028, 34.1231
11720.000000, 71.734, 35.9009
11800.000000, 71.998, 36.0279
12060.000000, 72.765, 34.4229
12200.000000, 73.048, 32.4597
12410.000000, 73.220, 28.8142
12500.000000, 73.199, 27.2810
12650.000000, 73.069, 25.1298
12800.000000, 72.873, 23.7022
13150.000000, 72.498, 22.6882
13200.000000, 72.476, 22.6760
13400.000000, 72.518, 22.3383
13600.000000, 72.650, 20.1635
13800.000000, 72.540, 16.3187
14000.000000, 72.101, 12.8365
14300.000000, 71.261, 10.3983
14500.000000, 70.845, 9.7409
14750.000000, 70.524, 8.0901
15000.000000, 70.228, 4.0790
15250.000000, 69.598, -2.5608
15500.000000, 68.241, -9.9334
15750.000000, 65.983, -13.5129
16000.000000, 63.331, -6.1057
16250.000000, 62.297, 13.4857
16500.000000, 64.001, 27.3399
16750.000000, 66.485, 24.0896
17000.000000, 67.751, 7.1478
17250.000000, 66.785, -13.1129
17500.000000, 64.218, -26.2501
17750.000000, 61.403, -32.1024
18000.000000, 58.822, -34.9069
18250.000000, 56.325, -36.2449
18500.000000, 53.807, -36.5048
18750.000000, 51.192, -36.1313
19000.000000, 48.331, -34.8931
19250.000000, 45.101, -31.1028
19500.000000, 41.593, -22.1731
19750.000000, 38.277, -7.1072
20000.000000, 36.211, 7.8572
