* Measurement data measured by REW V5.31.3
* Source: EXCL: Headset (USB-C to 3.5mm Headphone Jack Adapter), MICROPHONE (Master Volume), 0, volume: 0.700
* Format: 256k Log Swept Sine, 1 sweep at -12.0 dBFS with no timing reference
* Dated: Jan 27, 2025 3:58:59 AM
* REW Settings:
*  C-weighting compensation: Off
*  Target level: 75.0 dB
* Note: ; 
* Measurement: Wide L
* Smoothing: 1/24 octave
* Frequency Step: 1/48 octave
* Start Frequency: 1.000 Hz
*
* Freq(Hz), SPL(dB), Phase(degrees)
1.000000, 80.256, -136.7578
1.015000, 80.468, -138.0003
1.030000, 80.677, -139.2238
1.044000, 80.871, -140.3508
1.060000, 81.089, -141.6240
1.075000, 81.291, -142.8058
1.090000, 81.488, -143.9786
1.106000, 81.696, -145.2211
1.120000, 81.876, -146.3005
1.138000, 82.107, -147.6750
1.150000, 82.260, -148.5821
1.172000, 82.539, -150.2238
1.180000, 82.640, -150.8136
1.206000, 82.966, -152.7020
1.220000, 83.140, -153.7003
1.241000, 83.400, -155.1728
1.250000, 83.510, -155.7946
1.265000, 83.693, -156.8186
1.280000, 83.875, -157.8271
1.315000, 84.295, -160.1214
1.320000, 84.354, -160.4425
1.340000, 84.589, -161.7110
1.360000, 84.822, -162.9545
1.380000, 85.052, -164.1741
1.400000, 85.280, -165.3710
1.430000, 85.615, -167.1265
1.450000, 85.835, -168.2722
1.475000, 86.105, -169.6792
1.500000, 86.370, -171.0597
1.525000, 86.631, -172.4140
1.550000, 86.887, -173.7426
1.575000, 87.139, -175.0464
1.600000, 87.387, -176.3268
1.625000, 87.631, -177.5853
1.650000, 87.871, -178.8238
1.675000, 88.107, 179.9558
1.700000, 88.339, 178.7512
1.725000, 88.567, 177.5602
1.750000, 88.792, 176.3805
1.775000, 89.014, 175.2096
1.800000, 89.232, 174.0451
1.825000, 89.447, 172.8843
1.850000, 89.658, 171.7240
1.875000, 89.866, 170.5629
1.900000, 90.069, 169.4034
1.925000, 90.269, 168.2486
1.950000, 90.465, 167.1012
1.975000, 90.657, 165.9634
2.000000, 90.845, 164.8369
2.030000, 91.067, 163.5019
2.060000, 91.285, 162.1867
2.090000, 91.498, 160.8923
2.120000, 91.707, 159.6188
2.140000, 91.844, 158.7814
2.180000, 92.113, 157.1323
2.200000, 92.244, 156.3179
2.240000, 92.502, 154.6944
2.270000, 92.690, 153.4778
2.300000, 92.873, 152.2650
2.330000, 93.052, 151.0597
2.360000, 93.227, 149.8652
2.400000, 93.454, 148.2938
2.430000, 93.619, 147.1342
2.470000, 93.835, 145.6164
2.500000, 93.992, 144.5008
2.540000, 94.198, 143.0444
2.580000, 94.398, 141.6156
2.620000, 94.591, 140.1953
2.650000, 94.732, 139.1321
2.690000, 94.914, 137.7217
2.720000, 95.046, 136.6725
2.760000, 95.218, 135.2901
2.800000, 95.384, 133.9314
2.850000, 95.585, 132.2733
2.900000, 95.779, 130.6659
2.950000, 95.967, 129.1035
3.000000, 96.147, 127.5602
3.040000, 96.285, 126.3341
3.070000, 96.385, 125.4218
3.110000, 96.515, 124.2189
3.150000, 96.641, 123.0356
3.200000, 96.793, 121.5903
3.250000, 96.940, 120.1896
3.300000, 97.084, 118.8355
3.350000, 97.221, 117.5147
3.400000, 97.353, 116.2147
3.450000, 97.480, 114.9361
3.500000, 97.601, 113.6825
3.550000, 97.719, 112.4581
3.600000, 97.834, 111.2670
3.650000, 97.946, 110.1121
3.700000, 98.056, 108.9898
3.750000, 98.161, 107.8921
3.820000, 98.304, 106.3919
3.870000, 98.402, 105.3468
3.950000, 98.555, 103.7233
4.000000, 98.648, 102.7407
4.060000, 98.759, 101.5941
4.120000, 98.867, 100.4789
4.180000, 98.972, 99.3912
4.250000, 99.092, 98.1533
4.310000, 99.193, 97.1165
4.370000, 99.293, 96.1003
4.440000, 99.408, 94.9398
4.500000, 99.505, 93.9660
4.550000, 99.584, 93.1680
4.620000, 99.694, 92.0691
4.680000, 99.786, 91.1423
4.750000, 99.891, 90.0761
4.820000, 99.995, 89.0242
4.870000, 100.067, 88.2812
4.940000, 100.167, 87.2527
5.000000, 100.251, 86.3824
5.080000, 100.360, 85.2378
5.150000, 100.452, 84.2495
5.220000, 100.541, 83.2703
5.300000, 100.640, 82.1628
5.380000, 100.736, 81.0713
5.450000, 100.816, 80.1323
5.520000, 100.894, 79.2084
5.600000, 100.979, 78.1662
5.700000, 101.080, 76.8845
5.800000, 101.177, 75.6339
5.900000, 101.268, 74.4193
6.000000, 101.355, 73.2354
6.080000, 101.421, 72.3092
6.150000, 101.476, 71.5156
6.220000, 101.531, 70.7389
6.300000, 101.592, 69.8715
6.400000, 101.665, 68.8144
6.500000, 101.735, 67.7846
6.600000, 101.804, 66.7807
6.700000, 101.872, 65.8022
6.800000, 101.938, 64.8466
6.900000, 102.003, 63.9095
7.000000, 102.066, 62.9876
7.100000, 102.129, 62.0806
7.200000, 102.189, 61.1872
7.300000, 102.249, 60.3050
7.400000, 102.306, 59.4319
7.500000, 102.362, 58.5677
7.620000, 102.425, 57.5445
7.750000, 102.490, 56.4536
7.880000, 102.551, 55.3792
8.000000, 102.604, 54.4066
8.120000, 102.652, 53.4562
8.250000, 102.701, 52.4500
8.380000, 102.747, 51.4713
8.500000, 102.787, 50.5954
8.620000, 102.824, 49.7448
8.750000, 102.863, 48.8499
8.850000, 102.892, 48.1805
9.000000, 102.936, 47.2056
9.120000, 102.970, 46.4455
9.250000, 103.007, 45.6385
9.380000, 103.044, 44.8470
9.500000, 103.079, 44.1247
9.620000, 103.113, 43.4073
9.750000, 103.149, 42.6350
9.880000, 103.185, 41.8656
10.000000, 103.216, 41.1560
10.150000, 103.253, 40.2715
10.300000, 103.286, 39.3930
10.440000, 103.314, 38.5790
10.600000, 103.341, 37.6628
10.750000, 103.362, 36.8228
10.900000, 103.379, 36.0037
11.060000, 103.394, 35.1608
11.200000, 103.405, 34.4507
11.380000, 103.417, 33.5768
11.500000, 103.424, 33.0196
11.720000, 103.437, 32.0438
11.800000, 103.443, 31.7021
12.060000, 103.464, 30.6288
12.200000, 103.478, 30.0659
12.410000, 103.500, 29.2312
12.500000, 103.511, 28.8734
12.650000, 103.528, 28.2751
12.800000, 103.546, 27.6730
13.150000, 103.583, 26.2505
13.200000, 103.587, 26.0465
13.400000, 103.602, 25.2318
13.600000, 103.612, 24.4280
13.800000, 103.618, 23.6437
14.000000, 103.619, 22.8871
14.300000, 103.618, 21.8119
14.500000, 103.617, 21.1347
14.750000, 103.616, 20.3240
15.000000, 103.617, 19.5408
15.250000, 103.620, 18.7702
15.500000, 103.623, 18.0029
15.750000, 103.625, 17.2366
16.000000, 103.624, 16.4751
16.250000, 103.619, 15.7277
16.500000, 103.610, 15.0033
16.750000, 103.599, 14.3086
17.000000, 103.587, 13.6448
17.250000, 103.575, 13.0084
17.500000, 103.564, 12.3928
17.750000, 103.554, 11.7909
18.000000, 103.544, 11.1981
18.250000, 103.534, 10.6128
18.500000, 103.522, 10.0363
18.750000, 103.509, 9.4715
19.000000, 103.496, 8.9212
19.250000, 103.481, 8.3864
19.500000, 103.467, 7.8655
19.750000, 103.453, 7.3555
20.000000, 103.440, 6.8525
20.299999, 103.423, 6.2535
20.600000, 103.406, 5.6573
20.900000, 103.387, 5.0651
21.200001, 103.366, 4.4816
21.400000, 103.350, 4.1010
21.799999, 103.316, 3.3669
22.000000, 103.298, 3.0156
22.400000, 103.263, 2.3434
22.700001, 103.238, 1.8594
23.000000, 103.215, 1.3840
23.299999, 103.192, 0.9099
23.600000, 103.170, 0.4338
24.000000, 103.138, -0.1994
24.299999, 103.112, -0.6654
24.700001, 103.075, -1.2651
25.000000, 103.048, -1.6993
25.400000, 103.013, -2.2678
25.799999, 102.978, -2.8359
26.200001, 102.938, -3.3975
26.500000, 102.906, -3.7985
26.900000, 102.860, -4.2833
27.200001, 102.829, -4.6060
27.600000, 102.795, -5.0048
28.000000, 102.770, -5.4156
28.500000, 102.745, -6.0027
29.000000, 102.709, -6.6505
29.500000, 102.660, -7.2657
30.000000, 102.607, -7.7924
30.400000, 102.571, -8.1750
30.700001, 102.548, -8.4657
31.100000, 102.516, -8.8735
31.500000, 102.480, -9.2906
32.000000, 102.428, -9.7728
32.500000, 102.376, -10.1819
33.000000, 102.333, -10.5530
33.500000, 102.296, -10.9379
34.000000, 102.258, -11.3406
34.500000, 102.221, -11.7386
35.000000, 102.187, -12.1436
35.500000, 102.154, -12.5979
36.000000, 102.111, -13.1023
36.500000, 102.051, -13.5809
37.000000, 101.982, -13.9490
37.500000, 101.921, -14.2046
38.200001, 101.860, -14.5355
38.700001, 101.822, -14.8381
39.500000, 101.749, -15.3589
40.000000, 101.700, -15.6427
40.599998, 101.647, -15.9623
41.200001, 101.596, -16.3036
41.799999, 101.540, -16.6506
42.500000, 101.472, -17.0120
43.099998, 101.419, -17.2928
43.700001, 101.369, -17.5792
44.400002, 101.310, -17.9248
45.000000, 101.258, -18.2099
45.500000, 101.215, -18.4342
46.200001, 101.157, -18.7385
46.799999, 101.107, -18.9957
47.500000, 101.048, -19.2808
48.200001, 100.990, -19.5434
48.700001, 100.950, -19.7250
49.400002, 100.894, -19.9807
50.000000, 100.844, -20.1957
50.799999, 100.777, -20.4558
51.500000, 100.720, -20.6597
52.200001, 100.666, -20.8652
53.000000, 100.604, -21.1167
53.799999, 100.540, -21.3611
54.500000, 100.483, -21.5538
55.200001, 100.430, -21.7415
56.000000, 100.368, -21.9601
57.000000, 100.290, -22.2053
58.000000, 100.216, -22.4157
59.000000, 100.146, -22.6395
60.000000, 100.072, -22.8546
60.799999, 100.014, -22.9996
61.500000, 99.964, -23.1189
62.200001, 99.915, -23.2372
63.000000, 99.859, -23.3661
64.000000, 99.790, -23.5217
65.000000, 99.721, -23.6754
66.000000, 99.653, -23.8124
67.000000, 99.587, -23.9431
68.000000, 99.523, -24.0720
69.000000, 99.459, -24.1924
70.000000, 99.396, -24.3054
71.000000, 99.333, -24.4050
72.000000, 99.271, -24.5020
73.000000, 99.207, -24.5846
74.000000, 99.145, -24.6500
75.000000, 99.084, -24.7198
76.199997, 99.012, -24.7983
77.500000, 98.936, -24.8823
78.800003, 98.859, -24.9595
80.000000, 98.790, -25.0081
81.199997, 98.723, -25.0425
82.500000, 98.652, -25.0730
83.800003, 98.581, -25.1334
85.000000, 98.509, -25.1811
86.199997, 98.439, -25.1681
87.500000, 98.374, -25.1567
88.500000, 98.324, -25.1714
90.000000, 98.247, -25.1602
91.199997, 98.188, -25.1172
92.500000, 98.125, -25.0717
93.800003, 98.061, -25.0327
95.000000, 98.000, -24.9845
96.199997, 97.942, -24.9030
97.500000, 97.890, -24.8341
98.800003, 97.840, -24.7946
100.000000, 97.796, -24.7429
101.500000, 97.745, -24.6971
103.000000, 97.689, -24.6648
104.400002, 97.630, -24.6252
106.000000, 97.560, -24.5017
107.500000, 97.502, -24.3541
109.000000, 97.445, -24.2699
110.599998, 97.379, -24.1915
112.000000, 97.328, -24.1040
113.800003, 97.275, -24.0198
115.000000, 97.246, -23.9329
117.199997, 97.210, -23.6278
118.000000, 97.205, -23.4767
120.599998, 97.172, -23.4646
122.000000, 97.088, -23.4860
124.099998, 96.969, -23.2631
125.000000, 96.929, -23.1837
126.500000, 96.874, -23.0623
128.000000, 96.831, -22.9133
131.500000, 96.756, -22.4437
132.000000, 96.748, -22.3838
134.000000, 96.719, -22.2351
136.000000, 96.691, -22.2139
138.000000, 96.658, -22.2188
140.000000, 96.616, -22.1882
143.000000, 96.534, -22.0750
145.000000, 96.474, -21.9850
147.500000, 96.406, -21.8320
150.000000, 96.352, -21.7081
152.500000, 96.296, -21.5768
155.000000, 96.239, -21.4094
157.500000, 96.183, -21.2380
160.000000, 96.128, -21.0702
162.500000, 96.073, -20.8964
165.000000, 96.021, -20.7062
167.500000, 95.973, -20.5165
170.000000, 95.927, -20.3353
172.500000, 95.880, -20.1555
175.000000, 95.834, -19.9679
177.500000, 95.790, -19.7787
180.000000, 95.747, -19.5893
182.500000, 95.707, -19.4059
185.000000, 95.668, -19.2372
187.500000, 95.630, -19.0516
190.000000, 95.591, -18.8524
192.500000, 95.553, -18.6664
195.000000, 95.515, -18.4907
197.500000, 95.478, -18.3207
200.000000, 95.442, -18.1471
203.000000, 95.400, -17.9341
206.000000, 95.359, -17.7123
209.000000, 95.318, -17.4911
212.000000, 95.279, -17.2765
214.000000, 95.253, -17.1398
218.000000, 95.203, -16.8652
220.000000, 95.178, -16.7242
224.000000, 95.129, -16.4341
227.000000, 95.093, -16.2160
230.000000, 95.058, -15.9997
233.000000, 95.024, -15.7861
236.000000, 94.990, -15.5774
240.000000, 94.947, -15.3000
243.000000, 94.915, -15.0892
247.000000, 94.873, -14.8002
250.000000, 94.843, -14.5795
254.000000, 94.806, -14.2877
258.000000, 94.771, -14.0055
262.000000, 94.737, -13.7256
265.000000, 94.713, -13.5168
269.000000, 94.681, -13.2514
272.000000, 94.657, -13.0581
276.000000, 94.626, -12.8006
280.000000, 94.594, -12.5405
285.000000, 94.556, -12.2206
290.000000, 94.519, -11.9049
295.000000, 94.483, -11.5936
300.000000, 94.447, -11.2830
304.000000, 94.419, -11.0306
307.000000, 94.399, -10.8399
311.000000, 94.372, -10.5905
315.000000, 94.346, -10.3485
320.000000, 94.315, -10.0457
325.000000, 94.284, -9.7422
330.000000, 94.254, -9.4401
335.000000, 94.225, -9.1395
340.000000, 94.196, -8.8430
345.000000, 94.168, -8.5480
350.000000, 94.141, -8.2512
355.000000, 94.114, -7.9574
360.000000, 94.087, -7.6675
365.000000, 94.061, -7.3761
370.000000, 94.036, -7.0834
375.000000, 94.011, -6.7952
382.000000, 93.978, -6.3954
387.000000, 93.955, -6.1129
395.000000, 93.919, -5.6599
400.000000, 93.898, -5.3727
406.000000, 93.873, -5.0280
412.000000, 93.847, -4.6946
418.000000, 93.822, -4.3572
425.000000, 93.794, -3.9628
431.000000, 93.771, -3.6316
437.000000, 93.748, -3.3060
444.000000, 93.721, -2.9209
450.000000, 93.699, -2.5848
455.000000, 93.682, -2.3099
462.000000, 93.658, -1.9309
468.000000, 93.638, -1.5999
475.000000, 93.615, -1.2173
482.000000, 93.592, -0.8414
487.000000, 93.576, -0.5708
494.000000, 93.554, -0.1887
500.000000, 93.536, 0.1382
508.000000, 93.512, 0.5767
515.000000, 93.491, 0.9551
522.000000, 93.471, 1.3354
530.000000, 93.448, 1.7731
538.000000, 93.427, 2.2161
545.000000, 93.408, 2.6067
552.000000, 93.391, 2.9943
560.000000, 93.371, 3.4395
570.000000, 93.346, 4.0000
580.000000, 93.323, 4.5564
590.000000, 93.300, 5.1199
600.000000, 93.280, 5.6891
608.000000, 93.264, 6.1389
615.000000, 93.251, 6.5392
622.000000, 93.239, 6.9462
630.000000, 93.225, 7.4153
640.000000, 93.209, 8.0012
650.000000, 93.195, 8.5842
660.000000, 93.181, 9.1756
670.000000, 93.169, 9.7690
680.000000, 93.158, 10.3640
690.000000, 93.149, 10.9655
700.000000, 93.142, 11.5714
710.000000, 93.136, 12.1805
720.000000, 93.131, 12.7910
730.000000, 93.128, 13.4047
740.000000, 93.127, 14.0200
750.000000, 93.127, 14.6382
762.000000, 93.130, 15.3938
775.000000, 93.135, 16.2165
788.000000, 93.143, 17.0489
800.000000, 93.154, 17.8250
812.000000, 93.169, 18.6022
825.000000, 93.188, 19.4510
838.000000, 93.212, 20.3025
850.000000, 93.238, 21.0893
862.000000, 93.268, 21.8738
875.000000, 93.306, 22.7178
885.000000, 93.338, 23.3654
900.000000, 93.393, 24.3300
912.000000, 93.440, 25.0876
925.000000, 93.497, 25.8961
938.000000, 93.560, 26.6847
950.000000, 93.621, 27.3912
962.000000, 93.686, 28.0834
975.000000, 93.760, 28.8076
988.000000, 93.839, 29.5033
1000.000000, 93.914, 30.1215
1015.000000, 94.013, 30.8546
1030.000000, 94.115, 31.5414
1044.000000, 94.212, 32.1422
1060.000000, 94.325, 32.7750
1075.000000, 94.433, 33.3148
1090.000000, 94.540, 33.8067
1106.000000, 94.655, 34.2825
1120.000000, 94.754, 34.6582
1138.000000, 94.878, 35.0899
1150.000000, 94.959, 35.3481
1172.000000, 95.105, 35.7683
1180.000000, 95.156, 35.9041
1206.000000, 95.316, 36.2844
1220.000000, 95.397, 36.4579
1241.000000, 95.513, 36.6910
1250.000000, 95.560, 36.7832
1265.000000, 95.635, 36.9266
1280.000000, 95.707, 37.0606
1315.000000, 95.861, 37.3651
1320.000000, 95.881, 37.4087
1340.000000, 95.961, 37.5838
1360.000000, 96.038, 37.7596
1380.000000, 96.111, 37.9343
1400.000000, 96.180, 38.1154
1430.000000, 96.277, 38.4034
1450.000000, 96.338, 38.6076
1475.000000, 96.413, 38.8794
1500.000000, 96.486, 39.1685
1525.000000, 96.558, 39.4720
1550.000000, 96.629, 39.7951
1575.000000, 96.700, 40.1321
1600.000000, 96.771, 40.4767
1625.000000, 96.843, 40.8327
1650.000000, 96.916, 41.1988
1675.000000, 96.991, 41.5724
1700.000000, 97.066, 41.9524
1725.000000, 97.143, 42.3390
1750.000000, 97.222, 42.7321
1775.000000, 97.304, 43.1280
1800.000000, 97.388, 43.5216
1825.000000, 97.474, 43.9149
1850.000000, 97.563, 44.3069
1875.000000, 97.655, 44.6997
1900.000000, 97.751, 45.0904
1925.000000, 97.850, 45.4719
1950.000000, 97.954, 45.8378
1975.000000, 98.061, 46.1840
2000.000000, 98.170, 46.5057
2030.000000, 98.304, 46.8623
2060.000000, 98.441, 47.1927
2090.000000, 98.579, 47.4972
2120.000000, 98.721, 47.7786
2140.000000, 98.816, 47.9521
2180.000000, 99.012, 48.2606
2200.000000, 99.113, 48.3938
2240.000000, 99.318, 48.6118
2270.000000, 99.475, 48.7310
2300.000000, 99.636, 48.8094
2330.000000, 99.799, 48.8423
2360.000000, 99.965, 48.8279
2400.000000, 100.190, 48.7307
2430.000000, 100.361, 48.5939
2470.000000, 100.591, 48.3220
2500.000000, 100.765, 48.0450
2540.000000, 100.998, 47.5731
2580.000000, 101.231, 46.9724
2620.000000, 101.460, 46.2294
2650.000000, 101.628, 45.5742
2690.000000, 101.845, 44.5732
2720.000000, 102.000, 43.7278
2760.000000, 102.194, 42.4763
2800.000000, 102.371, 41.0867
2850.000000, 102.562, 39.1678
2900.000000, 102.716, 37.0741
2950.000000, 102.823, 34.8504
3000.000000, 102.882, 32.5587
3040.000000, 102.893, 30.7233
3070.000000, 102.882, 29.3666
3110.000000, 102.842, 27.6036
3150.000000, 102.778, 25.9104
3200.000000, 102.667, 23.9071
3250.000000, 102.527, 22.0380
3300.000000, 102.362, 20.3112
3350.000000, 102.175, 18.7383
3400.000000, 101.970, 17.3232
3450.000000, 101.749, 16.0640
3500.000000, 101.514, 14.9614
3550.000000, 101.267, 14.0225
3600.000000, 101.008, 13.2655
3650.000000, 100.742, 12.7046
3700.000000, 100.473, 12.3506
3750.000000, 100.205, 12.2053
3820.000000, 99.839, 12.3376
3870.000000, 99.592, 12.6618
3950.000000, 99.234, 13.5331
4000.000000, 99.043, 14.2294
4060.000000, 98.845, 15.1198
4120.000000, 98.675, 16.0020
4180.000000, 98.522, 16.8592
4250.000000, 98.357, 17.8569
4310.000000, 98.226, 18.7324
4370.000000, 98.103, 19.6399
4440.000000, 97.974, 20.7406
4500.000000, 97.876, 21.7184
4550.000000, 97.803, 22.5567
4620.000000, 97.716, 23.7631
4680.000000, 97.658, 24.8124
4750.000000, 97.609, 26.0233
4820.000000, 97.577, 27.1942
4870.000000, 97.564, 27.9972
4940.000000, 97.555, 29.0726
5000.000000, 97.556, 29.9537
5080.000000, 97.565, 31.0807
5150.000000, 97.580, 32.0313
5220.000000, 97.603, 32.9600
5300.000000, 97.640, 33.9974
5380.000000, 97.690, 34.9952
5450.000000, 97.746, 35.8206
5520.000000, 97.810, 36.5904
5600.000000, 97.893, 37.3947
5700.000000, 98.007, 38.2863
5800.000000, 98.132, 39.0532
5900.000000, 98.264, 39.6956
6000.000000, 98.401, 40.2159
6080.000000, 98.512, 40.5508
6150.000000, 98.610, 40.7927
6220.000000, 98.708, 40.9949
6300.000000, 98.820, 41.1886
6400.000000, 98.964, 41.3880
6500.000000, 99.115, 41.5480
6600.000000, 99.276, 41.6685
6700.000000, 99.453, 41.7427
6800.000000, 99.650, 41.7539
6900.000000, 99.871, 41.6872
7000.000000, 100.121, 41.5179
7100.000000, 100.408, 41.2015
7200.000000, 100.740, 40.6675
7300.000000, 101.122, 39.8000
7400.000000, 101.553, 38.4486
7500.000000, 102.022, 36.4556
7620.000000, 102.609, 32.9984
7750.000000, 103.217, 27.6902
7880.000000, 103.699, 20.5488
8000.000000, 103.905, 12.5173
8120.000000, 103.792, 3.7877
8250.000000, 103.284, -5.4317
8380.000000, 102.439, -13.4304
8500.000000, 101.466, -19.2263
8620.000000, 100.410, -23.4191
8750.000000, 99.260, -26.3547
8850.000000, 98.409, -27.6745
9000.000000, 97.221, -28.4590
9120.000000, 96.364, -28.3013
9250.000000, 95.534, -27.5932
9380.000000, 94.804, -26.5083
9500.000000, 94.214, -25.2858
9620.000000, 93.701, -23.9311
9750.000000, 93.226, -22.3968
9880.000000, 92.830, -20.8665
10000.000000, 92.531, -19.5173
10150.000000, 92.239, -18.0012
10300.000000, 92.028, -16.7611
10440.000000, 91.894, -15.9304
10600.000000, 91.799, -15.4446
10750.000000, 91.745, -15.4779
10900.000000, 91.703, -15.9905
11060.000000, 91.649, -16.9949
11200.000000, 91.582, -18.1580
11380.000000, 91.462, -19.8984
11500.000000, 91.362, -21.1388
11720.000000, 91.152, -23.4252
11800.000000, 91.074, -24.2308
12060.000000, 90.844, -26.7371
12200.000000, 90.755, -28.0535
12410.000000, 90.687, -30.1118
12500.000000, 90.686, -31.0710
12650.000000, 90.724, -32.8307
12800.000000, 90.816, -34.8624
13150.000000, 91.228, -41.1530
13200.000000, 91.307, -42.2740
13400.000000, 91.667, -47.4249
13600.000000, 92.080, -53.7692
13800.000000, 92.519, -61.4534
14000.000000, 92.953, -70.5814
14300.000000, 93.529, -87.1771
14500.000000, 93.784, -100.3383
14750.000000, 93.797, -118.8514
15000.000000, 93.367, -138.5645
15250.000000, 92.508, -158.2420
15500.000000, 91.319, -176.9863
15750.000000, 89.936, 165.6464
16000.000000, 88.489, 149.6959
16250.000000, 87.083, 134.9778
16500.000000, 85.795, 121.2634
16750.000000, 84.695, 108.3500
17000.000000, 83.897, 96.0511
17250.000000, 83.676, 83.8218
17500.000000, 84.503, 69.1978
17750.000000, 86.106, 46.6951
18000.000000, 87.042, 14.9093
18250.000000, 86.851, -20.7748
18500.000000, 86.027, -57.7640
18750.000000, 84.819, -96.4576
19000.000000, 83.154, -137.1884
19250.000000, 80.891, -179.5343
19500.000000, 77.963, 137.2797
19750.000000, 74.489, 93.9631
20000.000000, 71.533, 57.4316
