* Measurement data measured by REW V5.30.9
* Source: Headset (JA3 HIFI AUDIO(CX31993)), MICROPHONE (Master Volume), L, volume: 0.250
* Format: 512k Log Swept Sine, 1 sweep at -13.0 dBFS with no timing reference
* Dated: Feb 24, 2024 2:31:43 PM
* REW Settings:
*  C-weighting compensation: Off
*  Target level: 75.0 dB
* Note: ; 
* Measurement: SeeAudio Yume 2 R
* Smoothing: 1/12 octave
* Frequency Step: 1/48 octave
* Start Frequency: 1.000 Hz
*
* Freq(Hz) SPL(dB) Phase(degrees)
1.000000 72.338 -132.0739
1.015000 72.599 -132.2977
1.030000 72.856 -132.5612
1.044000 73.094 -132.8429
1.060000 73.360 -133.2064
1.075000 73.605 -133.5858
1.090000 73.846 -133.9980
1.106000 74.098 -134.4643
1.120000 74.316 -134.8853
1.138000 74.592 -135.4341
1.150000 74.775 -135.8021
1.172000 75.107 -136.4796
1.180000 75.227 -136.7271
1.206000 75.612 -137.5365
1.220000 75.817 -137.9764
1.241000 76.122 -138.6431
1.250000 76.251 -138.9317
1.265000 76.465 -139.4170
1.280000 76.678 -139.9081
1.315000 77.166 -141.0800
1.320000 77.235 -141.2507
1.340000 77.509 -141.9425
1.360000 77.779 -142.6496
1.380000 78.046 -143.3730
1.400000 78.310 -144.1139
1.430000 78.701 -145.2588
1.450000 78.957 -146.0425
1.475000 79.272 -147.0370
1.500000 79.582 -148.0353
1.525000 79.886 -149.0286
1.550000 80.185 -150.0149
1.575000 80.478 -150.9956
1.600000 80.766 -151.9733
1.625000 81.050 -152.9507
1.650000 81.329 -153.9306
1.675000 81.603 -154.9158
1.700000 81.873 -155.9092
1.725000 82.140 -156.9134
1.750000 82.402 -157.9310
1.775000 82.661 -158.9641
1.800000 82.917 -160.0142
1.825000 83.169 -161.0807
1.850000 83.417 -162.1604
1.875000 83.661 -163.2480
1.900000 83.902 -164.3389
1.925000 84.138 -165.4298
1.950000 84.369 -166.5185
1.975000 84.597 -167.6037
2.000000 84.822 -168.6847
2.030000 85.086 -169.9758
2.060000 85.346 -171.2608
2.090000 85.601 -172.5404
2.120000 85.852 -173.8164
2.140000 86.018 -174.6659
2.180000 86.342 -176.3655
2.200000 86.502 -177.2168
2.240000 86.815 -178.9235
2.270000 87.045 179.7947
2.300000 87.270 178.5146
2.330000 87.491 177.2389
2.360000 87.707 175.9701
2.400000 87.990 174.2920
2.430000 88.197 173.0449
2.470000 88.468 171.3979
2.500000 88.667 170.1736
2.540000 88.927 168.5531
2.580000 89.182 166.9402
2.620000 89.430 165.3294
2.650000 89.612 164.1226
2.690000 89.849 162.5182
2.720000 90.022 161.3215
2.760000 90.249 159.7386
2.800000 90.470 158.1737
2.850000 90.739 156.2461
2.900000 91.001 154.3491
2.950000 91.255 152.4743
3.000000 91.501 150.6111
3.040000 91.692 149.1271
3.070000 91.832 148.0196
3.110000 92.015 146.5537
3.150000 92.193 145.1037
3.200000 92.410 143.3181
3.250000 92.620 141.5643
3.300000 92.825 139.8387
3.350000 93.023 138.1324
3.400000 93.215 136.4396
3.450000 93.401 134.7617
3.500000 93.581 133.1036
3.550000 93.756 131.4709
3.600000 93.925 129.8666
3.650000 94.090 128.2900
3.700000 94.249 126.7358
3.750000 94.404 125.1982
3.820000 94.611 123.0715
3.870000 94.754 121.5749
3.950000 94.974 119.2290
4.000000 95.105 117.7955
4.060000 95.258 116.1045
4.120000 95.405 114.4385
4.180000 95.545 112.7951
4.250000 95.702 110.9105
4.310000 95.831 109.3280
4.370000 95.954 107.7778
4.440000 96.092 106.0054
4.500000 96.204 104.5119
4.550000 96.293 103.2847
4.620000 96.413 101.5965
4.680000 96.510 100.1811
4.750000 96.617 98.5687
4.820000 96.718 96.9944
4.870000 96.787 95.8903
4.940000 96.877 94.3735
5.000000 96.949 93.1033
5.080000 97.039 91.4581
5.150000 97.112 90.0648
5.220000 97.179 88.7112
5.300000 97.249 87.2111
5.380000 97.313 85.7646
5.450000 97.364 84.5475
5.520000 97.411 83.3770
5.600000 97.460 82.0944
5.700000 97.515 80.5708
5.800000 97.564 79.1382
5.900000 97.610 77.8004
6.000000 97.652 76.5549
6.080000 97.685 75.6202
6.150000 97.714 74.8446
6.220000 97.743 74.1074
6.300000 97.778 73.3105
6.400000 97.823 72.3773
6.500000 97.872 71.5017
6.600000 97.926 70.6717
6.700000 97.984 69.8802
6.800000 98.048 69.1183
6.900000 98.115 68.3722
7.000000 98.187 67.6306
7.100000 98.261 66.8878
7.200000 98.339 66.1384
7.300000 98.417 65.3750
7.400000 98.494 64.5931
7.500000 98.571 63.7924
7.620000 98.660 62.8085
7.750000 98.750 61.7164
7.880000 98.831 60.6021
8.000000 98.899 59.5642
8.120000 98.958 58.5264
8.250000 99.012 57.4098
8.380000 99.056 56.3125
8.500000 99.089 55.3256
8.620000 99.116 54.3680
8.750000 99.138 53.3677
8.850000 99.151 52.6266
9.000000 99.167 51.5610
9.120000 99.178 50.7455
9.250000 99.187 49.8958
9.380000 99.196 49.0767
9.500000 99.203 48.3430
9.620000 99.209 47.6266
9.750000 99.213 46.8673
9.880000 99.213 46.1225
10.000000 99.207 45.4466
10.150000 99.193 44.6179
10.300000 99.172 43.8093
10.440000 99.148 43.0750
10.600000 99.118 42.2632
10.750000 99.090 41.5306
10.900000 99.064 40.8244
11.060000 99.039 40.0961
11.200000 99.021 39.4743
11.380000 99.003 38.6831
11.500000 98.996 38.1529
11.720000 98.990 37.1562
11.800000 98.989 36.7814
12.060000 98.991 35.5057
12.200000 98.992 34.7809
12.410000 98.993 33.6520
12.500000 98.993 33.1574
12.650000 98.992 32.3265
12.800000 98.988 31.4979
13.150000 98.961 29.6381
13.200000 98.956 29.3865
13.400000 98.930 28.4266
13.600000 98.901 27.5481
13.800000 98.874 26.7527
14.000000 98.850 26.0336
14.300000 98.827 25.0684
14.500000 98.821 24.4757
14.750000 98.825 23.7618
15.000000 98.839 23.0508
15.250000 98.859 22.3205
15.500000 98.882 21.5575
15.750000 98.903 20.7592
16.000000 98.917 19.9352
16.250000 98.921 19.1084
16.500000 98.913 18.3113
16.750000 98.893 17.5798
17.000000 98.865 16.9426
17.250000 98.835 16.4108
17.500000 98.810 15.9703
17.750000 98.795 15.5845
18.000000 98.791 15.2041
18.250000 98.794 14.7856
18.500000 98.798 14.3075
18.750000 98.795 13.7780
19.000000 98.781 13.2322
19.250000 98.756 12.7177
19.500000 98.725 12.2737
19.750000 98.697 11.9116
20.000000 98.684 11.6066
20.299999 98.693 11.2321
20.600000 98.728 10.7327
20.900000 98.774 10.0223
21.200001 98.810 9.0959
21.400000 98.819 8.3948
21.799999 98.793 6.9590
22.000000 98.761 6.3002
22.400000 98.685 5.2152
22.700001 98.639 4.5988
23.000000 98.616 4.0694
23.299999 98.618 3.5301
23.600000 98.631 2.9172
24.000000 98.646 1.9935
24.299999 98.645 1.2940
24.700001 98.634 0.4680
25.000000 98.630 -0.0542
25.400000 98.646 -0.7109
25.799999 98.677 -1.4762
26.200001 98.691 -2.4186
26.500000 98.670 -3.1730
26.900000 98.591 -4.0424
27.200001 98.504 -4.4572
27.600000 98.389 -4.6121
28.000000 98.316 -4.4335
28.500000 98.309 -4.1984
29.000000 98.349 -4.3972
29.500000 98.360 -5.0522
30.000000 98.309 -5.8398
30.400000 98.239 -6.3709
30.700001 98.184 -6.6880
31.100000 98.120 -7.0557
31.500000 98.067 -7.4429
32.000000 98.006 -8.0245
32.500000 97.933 -8.6707
33.000000 97.850 -9.2717
33.500000 97.767 -9.7626
34.000000 97.697 -10.1547
34.500000 97.641 -10.4876
35.000000 97.595 -10.7743
35.500000 97.560 -11.0001
36.000000 97.539 -11.1721
36.500000 97.538 -11.3586
37.000000 97.548 -11.6594
37.500000 97.547 -12.1182
38.200001 97.491 -12.8598
38.700001 97.411 -13.2314
39.500000 97.282 -13.3187
40.000000 97.242 -13.2122
40.599998 97.242 -13.2469
41.200001 97.257 -13.6325
41.799999 97.249 -14.2957
42.500000 97.197 -15.1469
43.099998 97.133 -15.7761
43.700001 97.069 -16.2843
44.400002 97.006 -16.7869
45.000000 96.961 -17.2147
45.500000 96.923 -17.5994
46.200001 96.854 -18.1441
46.799999 96.777 -18.5248
47.500000 96.681 -18.7961
48.200001 96.597 -18.9468
48.700001 96.548 -19.0524
49.400002 96.487 -19.2587
50.000000 96.437 -19.5095
50.799999 96.366 -19.9399
51.500000 96.289 -20.3264
52.200001 96.202 -20.5935
53.000000 96.116 -20.6906
53.799999 96.058 -20.6678
54.500000 96.025 -20.6273
55.200001 96.001 -20.5752
56.000000 95.987 -20.5438
57.000000 95.975 -20.6485
58.000000 95.958 -21.0172
59.000000 95.898 -21.7409
60.000000 95.763 -22.3986
60.799999 95.650 -22.6459
61.500000 95.572 -22.7897
62.200001 95.505 -22.9148
63.000000 95.446 -22.9764
64.000000 95.409 -23.1021
65.000000 95.359 -23.3961
66.000000 95.289 -23.5024
67.000000 95.242 -23.6741
68.000000 95.148 -24.0823
69.000000 95.013 -24.1747
70.000000 94.921 -24.1639
71.000000 94.836 -24.3837
72.000000 94.744 -24.5005
73.000000 94.689 -24.5374
74.000000 94.654 -24.6989
75.000000 94.610 -24.8654
76.199997 94.546 -24.8372
77.500000 94.510 -24.4353
78.800003 94.558 -24.3087
80.000000 94.571 -25.1232
81.199997 94.429 -26.2637
82.500000 94.156 -26.7780
83.800003 93.920 -26.4432
85.000000 93.784 -25.9824
86.199997 93.679 -25.5948
87.500000 93.562 -25.0342
88.500000 93.480 -24.4235
90.000000 93.410 -23.5154
91.199997 93.403 -23.2504
92.500000 93.415 -23.6411
93.800003 93.433 -24.4580
95.000000 93.459 -25.1984
96.199997 93.509 -25.5530
97.500000 93.587 -25.3861
98.800003 93.665 -24.7755
100.000000 93.694 -24.1016
101.500000 93.629 -23.3381
103.000000 93.482 -22.8851
104.400002 93.326 -22.9539
106.000000 93.193 -23.6541
107.500000 93.109 -24.5507
109.000000 93.053 -25.0089
110.599998 93.017 -24.8185
112.000000 92.985 -24.4036
113.800003 92.888 -24.0002
115.000000 92.794 -23.8240
117.199997 92.640 -23.7754
118.000000 92.599 -23.8555
120.599998 92.506 -24.1270
122.000000 92.480 -24.1213
124.099998 92.474 -24.0175
125.000000 92.477 -23.9874
126.500000 92.485 -23.9551
128.000000 92.491 -23.9253
131.500000 92.474 -23.9568
132.000000 92.464 -23.9397
134.000000 92.419 -23.6642
136.000000 92.391 -23.1663
138.000000 92.372 -22.7929
140.000000 92.297 -22.8528
143.000000 92.117 -22.8545
145.000000 92.049 -22.8135
147.500000 92.004 -22.7264
150.000000 91.947 -22.6012
152.500000 91.890 -22.3277
155.000000 91.835 -22.2017
157.500000 91.701 -22.3521
160.000000 91.498 -22.4434
162.500000 91.354 -22.3967
165.000000 91.324 -22.2172
167.500000 91.353 -21.8943
170.000000 91.345 -21.4302
172.500000 91.300 -20.8779
175.000000 91.242 -20.4091
177.500000 91.187 -19.9296
180.000000 91.162 -19.5170
182.500000 91.172 -19.4137
185.000000 91.213 -19.5220
187.500000 91.253 -19.5127
190.000000 91.252 -19.1766
192.500000 91.208 -18.7562
195.000000 91.159 -18.5269
197.500000 91.135 -18.4236
200.000000 91.124 -18.2668
203.000000 91.093 -17.9519
206.000000 91.055 -17.6536
209.000000 91.022 -17.3998
212.000000 90.977 -17.1571
214.000000 90.939 -17.0715
218.000000 90.871 -17.0964
220.000000 90.843 -17.0784
224.000000 90.795 -16.8028
227.000000 90.771 -16.5153
230.000000 90.752 -16.2143
233.000000 90.727 -15.8521
236.000000 90.702 -15.5396
240.000000 90.679 -15.3334
243.000000 90.674 -15.3267
247.000000 90.660 -15.2034
250.000000 90.650 -14.9890
254.000000 90.623 -14.8776
258.000000 90.568 -14.8539
262.000000 90.515 -14.8293
265.000000 90.485 -14.7761
269.000000 90.463 -14.5363
272.000000 90.458 -14.2050
276.000000 90.449 -13.6937
280.000000 90.409 -13.2744
285.000000 90.333 -12.9649
290.000000 90.266 -12.6370
295.000000 90.225 -12.2117
300.000000 90.215 -12.0076
304.000000 90.212 -11.9363
307.000000 90.207 -11.8693
311.000000 90.195 -11.7551
315.000000 90.177 -11.6097
320.000000 90.163 -11.3162
325.000000 90.159 -10.9578
330.000000 90.142 -10.6835
335.000000 90.105 -10.4613
340.000000 90.051 -10.2399
345.000000 89.996 -9.9745
350.000000 89.958 -9.6950
355.000000 89.935 -9.3955
360.000000 89.911 -9.0432
365.000000 89.883 -8.6859
370.000000 89.855 -8.4180
375.000000 89.829 -8.1773
382.000000 89.798 -7.7921
387.000000 89.779 -7.5697
395.000000 89.747 -7.2228
400.000000 89.735 -6.9574
406.000000 89.720 -6.6425
412.000000 89.696 -6.3448
418.000000 89.663 -6.0654
425.000000 89.629 -5.7110
431.000000 89.619 -5.3234
437.000000 89.623 -4.8905
444.000000 89.630 -4.4586
450.000000 89.629 -4.1783
455.000000 89.622 -3.9949
462.000000 89.607 -3.7504
468.000000 89.588 -3.4786
475.000000 89.573 -3.0925
482.000000 89.567 -2.7467
487.000000 89.559 -2.5082
494.000000 89.541 -2.1495
500.000000 89.525 -1.8099
508.000000 89.516 -1.2809
515.000000 89.508 -0.8636
522.000000 89.483 -0.5406
530.000000 89.445 -0.1785
538.000000 89.416 0.2072
545.000000 89.394 0.5933
552.000000 89.378 1.1218
560.000000 89.382 1.7635
570.000000 89.389 2.3055
580.000000 89.369 2.6497
590.000000 89.346 2.9806
600.000000 89.347 3.4081
608.000000 89.361 3.7931
615.000000 89.376 4.1582
622.000000 89.385 4.5315
630.000000 89.384 4.9315
640.000000 89.378 5.3231
650.000000 89.373 5.6638
660.000000 89.359 6.2139
670.000000 89.340 6.9164
680.000000 89.327 7.5823
690.000000 89.322 8.1654
700.000000 89.321 8.6550
710.000000 89.316 9.1712
720.000000 89.310 9.7896
730.000000 89.307 10.4150
740.000000 89.308 11.0092
750.000000 89.316 11.6084
762.000000 89.332 12.3529
775.000000 89.347 13.1533
788.000000 89.360 13.8999
800.000000 89.380 14.5674
812.000000 89.408 15.3158
825.000000 89.442 16.2481
838.000000 89.477 17.1721
850.000000 89.507 17.9833
862.000000 89.540 18.8039
875.000000 89.584 19.6919
885.000000 89.624 20.3556
900.000000 89.692 21.3217
912.000000 89.751 22.0665
925.000000 89.820 22.8538
938.000000 89.894 23.6294
950.000000 89.967 24.3351
962.000000 90.043 25.0316
975.000000 90.129 25.7617
988.000000 90.219 26.4533
1000.000000 90.303 27.0504
1015.000000 90.414 27.7451
1030.000000 90.527 28.3893
1044.000000 90.634 28.9543
1060.000000 90.756 29.5541
1075.000000 90.872 30.0644
1090.000000 90.991 30.5268
1106.000000 91.121 30.9735
1120.000000 91.236 31.3225
1138.000000 91.383 31.7137
1150.000000 91.478 31.9406
1172.000000 91.650 32.3027
1180.000000 91.710 32.4130
1206.000000 91.901 32.6786
1220.000000 92.001 32.7832
1241.000000 92.150 32.9112
1250.000000 92.214 32.9593
1265.000000 92.321 33.0400
1280.000000 92.427 33.1227
1315.000000 92.667 33.2652
1320.000000 92.700 33.2806
1340.000000 92.834 33.3341
1360.000000 92.962 33.3648
1380.000000 93.086 33.3733
1400.000000 93.209 33.3732
1430.000000 93.390 33.3774
1450.000000 93.509 33.3809
1475.000000 93.659 33.3870
1500.000000 93.807 33.3819
1525.000000 93.952 33.3496
1550.000000 94.096 33.3030
1575.000000 94.243 33.2556
1600.000000 94.391 33.1944
1625.000000 94.540 33.1112
1650.000000 94.689 33.0075
1675.000000 94.839 32.8831
1700.000000 94.989 32.7334
1725.000000 95.138 32.5595
1750.000000 95.287 32.3609
1775.000000 95.436 32.1372
1800.000000 95.585 31.8873
1825.000000 95.734 31.6054
1850.000000 95.884 31.2881
1875.000000 96.032 30.9331
1900.000000 96.177 30.5407
1925.000000 96.320 30.1129
1950.000000 96.460 29.6487
1975.000000 96.598 29.1472
2000.000000 96.734 28.6119
2030.000000 96.892 27.9249
2060.000000 97.045 27.1910
2090.000000 97.191 26.4196
2120.000000 97.331 25.6091
2140.000000 97.420 25.0428
2180.000000 97.588 23.8487
2200.000000 97.666 23.2256
2240.000000 97.807 21.9396
2270.000000 97.901 20.9473
2300.000000 97.984 19.9372
2330.000000 98.055 18.9141
2360.000000 98.117 17.8844
2400.000000 98.181 16.5145
2430.000000 98.217 15.4965
2470.000000 98.250 14.1584
2500.000000 98.263 13.1776
2540.000000 98.267 11.9118
2580.000000 98.257 10.7075
2620.000000 98.233 9.5792
2650.000000 98.207 8.7893
2690.000000 98.162 7.8164
2720.000000 98.122 7.1493
2760.000000 98.065 6.3462
2800.000000 98.003 5.6418
2850.000000 97.925 4.8900
2900.000000 97.850 4.2737
2950.000000 97.783 3.7711
3000.000000 97.723 3.3289
3040.000000 97.672 3.0157
3070.000000 97.631 2.8193
3110.000000 97.575 2.6201
3150.000000 97.524 2.4934
3200.000000 97.472 2.4166
3250.000000 97.439 2.3866
3300.000000 97.422 2.3406
3350.000000 97.415 2.2303
3400.000000 97.408 2.0499
3450.000000 97.395 1.8330
3500.000000 97.373 1.6293
3550.000000 97.343 1.4835
3600.000000 97.312 1.4207
3650.000000 97.285 1.4461
3700.000000 97.268 1.5471
3750.000000 97.267 1.6925
3820.000000 97.295 1.8881
3870.000000 97.334 1.9657
3950.000000 97.416 1.8983
4000.000000 97.469 1.7174
4060.000000 97.526 1.3717
4120.000000 97.572 0.9114
4180.000000 97.604 0.3640
4250.000000 97.623 -0.3476
4310.000000 97.623 -0.9877
4370.000000 97.611 -1.6294
4440.000000 97.584 -2.3687
4500.000000 97.556 -3.0089
4550.000000 97.528 -3.5680
4620.000000 97.479 -4.4240
4680.000000 97.420 -5.2390
4750.000000 97.322 -6.2601
4820.000000 97.184 -7.2894
4870.000000 97.060 -7.9791
4940.000000 96.853 -8.8125
5000.000000 96.648 -9.3547
5080.000000 96.345 -9.7754
5150.000000 96.065 -9.8392
5220.000000 95.780 -9.6166
5300.000000 95.461 -9.0190
5380.000000 95.159 -8.0715
5450.000000 94.917 -6.9808
5520.000000 94.701 -5.6757
5600.000000 94.492 -3.9621
5700.000000 94.295 -1.5690
5800.000000 94.175 0.9987
5900.000000 94.135 3.6344
6000.000000 94.177 6.2280
6080.000000 94.270 8.1991
6150.000000 94.392 9.7985
6220.000000 94.552 11.2388
6300.000000 94.778 12.6379
6400.000000 95.113 13.9363
6500.000000 95.486 14.6528
6600.000000 95.866 14.7382
6700.000000 96.225 14.2044
6800.000000 96.534 13.1320
6900.000000 96.777 11.6656
7000.000000 96.945 9.9872
7100.000000 97.044 8.2648
7200.000000 97.086 6.6205
7300.000000 97.089 5.1188
7400.000000 97.069 3.7682
7500.000000 97.037 2.5357
7620.000000 96.994 1.1274
7750.000000 96.946 -0.4595
7880.000000 96.881 -2.2539
8000.000000 96.780 -4.1639
8120.000000 96.612 -6.3017
8250.000000 96.336 -8.7640
8380.000000 95.958 -11.1904
8500.000000 95.524 -13.2136
8620.000000 95.022 -14.8845
8750.000000 94.421 -16.1986
8850.000000 93.935 -16.8350
9000.000000 93.187 -17.1981
9120.000000 92.588 -17.0163
9250.000000 91.948 -16.3949
9380.000000 91.327 -15.3911
9500.000000 90.774 -14.1968
9620.000000 90.240 -12.8113
9750.000000 89.674 -11.1138
9880.000000 89.116 -9.1603
10000.000000 88.611 -7.0529
10150.000000 88.009 -3.9145
10300.000000 87.462 -0.1849
10440.000000 87.021 3.7809
10600.000000 86.615 8.7487
10750.000000 86.341 13.6826
10900.000000 86.181 18.8065
11060.000000 86.164 24.3693
11200.000000 86.293 28.9976
11380.000000 86.625 34.0572
11500.000000 86.913 36.7172
11720.000000 87.495 40.0581
11800.000000 87.705 40.7985
12060.000000 88.281 41.7871
12200.000000 88.489 41.7875
12410.000000 88.678 41.9077
12500.000000 88.741 42.2090
12650.000000 88.880 43.1487
12800.000000 89.121 44.4514
13150.000000 90.158 46.1943
13200.000000 90.339 46.0894
13400.000000 91.074 44.6753
13600.000000 91.788 41.8371
13800.000000 92.462 37.7063
14000.000000 93.076 32.2272
14300.000000 93.751 21.2927
14500.000000 93.911 12.4042
14750.000000 93.642 0.4730
15000.000000 92.814 -10.8666
15250.000000 91.531 -20.1964
15500.000000 89.985 -26.6891
15750.000000 88.398 -30.1931
16000.000000 86.986 -31.2876
16250.000000 85.909 -31.3525
16500.000000 85.189 -32.1025
16750.000000 84.693 -34.4885
17000.000000 84.280 -38.5195
17250.000000 83.877 -44.0275
17500.000000 83.431 -50.9902
17750.000000 82.858 -59.2723
18000.000000 82.059 -68.3741
18250.000000 80.979 -77.4817
18500.000000 79.641 -85.7471
18750.000000 78.138 -92.6157
19000.000000 76.611 -98.0219
19250.000000 75.204 -102.3906
19500.000000 74.024 -106.5167
19750.000000 73.108 -111.3188
20000.000000 72.409 -117.5413
20300.000000 71.700 -127.3838
20600.000000 70.937 -139.8393
20900.000000 69.965 -154.6196
21200.000000 68.698 -171.3445
21400.000000 67.662 176.5799
21800.000000 65.080 150.4771
22000.000000 63.513 136.6328
22400.000000 59.797 108.3226
22700.000000 56.529 87.5323
23000.000000 53.007 67.6652
23300.000000 49.777 49.1568
23600.000000 48.082 32.9855
24000.000000 48.112 17.8148
