* Measurement data measured by REW V5.31
* Source: Headset (DS by VECLAN.COM), MICROPHONE (Master Volume), L, volume: 0.720. Timing signal peak level -8.2 dBFS, measurement signal peak level -8.1 dBFS
* Format: 2M Log Swept Sine, 1 sweep at -7.0 dBFS using an acoustic timing reference
* Dated: Apr 24, 2024 4:47:48 PM
* REW Settings:
*  C-weighting compensation: Off
*  Target level: 85.0 dB
* Note: ; Delay -0.1045 ms (-36 mm, -1.41 in) using estimated IR delay relative to Acoustic reference played from HEADPHONE R with no timing offset
* Measurement: DCA Aeon 2 Closed R3
* Smoothing: 1/24 octave
* Frequency Step: 1/48 octave
* Start Frequency: 1.000 Hz
*
* Freq(Hz), SPL(dB), Phase(degrees)
1.000000, 77.441, 16.7100
1.015000, 77.440, 15.8311
1.030000, 77.443, 14.9067
1.044000, 77.450, 14.0005
1.060000, 77.465, 12.9108
1.075000, 77.485, 11.8335
1.090000, 77.512, 10.6991
1.106000, 77.549, 9.4222
1.120000, 77.586, 8.2465
1.138000, 77.641, 6.6577
1.150000, 77.681, 5.5532
1.172000, 77.763, 3.4356
1.180000, 77.795, 2.6335
1.206000, 77.907, -0.0551
1.220000, 77.971, -1.5484
1.241000, 78.072, -3.8372
1.250000, 78.117, -4.8331
1.265000, 78.194, -6.5090
1.280000, 78.274, -8.2005
1.315000, 78.465, -12.1824
1.320000, 78.493, -12.7528
1.340000, 78.605, -15.0324
1.360000, 78.719, -17.3009
1.380000, 78.833, -19.5896
1.400000, 78.946, -21.8687
1.430000, 79.113, -25.2300
1.450000, 79.222, -27.4268
1.475000, 79.354, -30.1142
1.500000, 79.486, -32.7173
1.525000, 79.619, -35.2171
1.550000, 79.752, -37.6020
1.575000, 79.886, -39.8871
1.600000, 80.022, -42.0872
1.625000, 80.159, -44.1641
1.650000, 80.298, -46.1210
1.675000, 80.439, -47.9630
1.700000, 80.581, -49.6964
1.725000, 80.726, -51.3283
1.750000, 80.874, -52.8657
1.775000, 81.024, -54.3333
1.800000, 81.177, -55.7544
1.825000, 81.333, -57.1004
1.850000, 81.493, -58.3715
1.875000, 81.659, -59.5630
1.900000, 81.829, -60.6764
1.925000, 82.003, -61.7165
1.950000, 82.181, -62.6880
1.975000, 82.361, -63.6132
2.000000, 82.543, -64.5131
2.030000, 82.761, -65.5219
2.060000, 82.979, -66.4628
2.090000, 83.195, -67.3431
2.120000, 83.408, -68.1697
2.140000, 83.547, -68.6940
2.180000, 83.816, -69.7059
2.200000, 83.947, -70.2033
2.240000, 84.201, -71.1337
2.270000, 84.388, -71.7736
2.300000, 84.572, -72.3683
2.330000, 84.753, -72.9230
2.360000, 84.932, -73.4429
2.400000, 85.165, -74.1374
2.430000, 85.338, -74.6350
2.470000, 85.565, -75.2652
2.500000, 85.733, -75.7170
2.540000, 85.953, -76.2961
2.580000, 86.171, -76.8648
2.620000, 86.384, -77.4300
2.650000, 86.541, -77.8250
2.690000, 86.747, -78.3194
2.720000, 86.899, -78.6702
2.760000, 87.099, -79.1156
2.800000, 87.295, -79.5830
2.850000, 87.536, -80.1573
2.900000, 87.772, -80.7219
2.950000, 88.004, -81.2762
3.000000, 88.231, -81.8348
3.040000, 88.409, -82.2709
3.070000, 88.540, -82.5871
3.110000, 88.713, -82.9978
3.150000, 88.882, -83.4001
3.200000, 89.090, -83.9281
3.250000, 89.294, -84.4712
3.300000, 89.494, -85.0186
3.350000, 89.690, -85.5619
3.400000, 89.881, -86.1275
3.450000, 90.069, -86.6957
3.500000, 90.252, -87.2549
3.550000, 90.431, -87.8074
3.600000, 90.605, -88.3838
3.650000, 90.774, -88.9728
3.700000, 90.938, -89.5655
3.750000, 91.098, -90.1599
3.820000, 91.313, -91.0228
3.870000, 91.461, -91.6394
3.950000, 91.690, -92.6086
4.000000, 91.826, -93.2257
4.060000, 91.984, -93.9739
4.120000, 92.136, -94.7259
4.180000, 92.281, -95.4842
4.250000, 92.442, -96.3885
4.310000, 92.574, -97.1414
4.370000, 92.699, -97.8748
4.440000, 92.836, -98.7447
4.500000, 92.947, -99.4879
4.550000, 93.034, -100.1017
4.620000, 93.149, -100.9690
4.680000, 93.243, -101.6904
4.750000, 93.346, -102.4905
4.820000, 93.442, -103.2799
4.870000, 93.507, -103.8370
4.940000, 93.592, -104.5973
5.000000, 93.660, -105.2388
5.080000, 93.746, -106.0583
5.150000, 93.817, -106.7251
5.220000, 93.883, -107.3780
5.300000, 93.953, -108.0962
5.380000, 94.019, -108.7754
5.450000, 94.076, -109.3499
5.520000, 94.132, -109.8828
5.600000, 94.194, -110.4583
5.700000, 94.269, -111.1417
5.800000, 94.345, -111.7839
5.900000, 94.423, -112.4000
6.000000, 94.503, -112.9765
6.080000, 94.568, -113.4292
6.150000, 94.626, -113.8132
6.220000, 94.685, -114.2082
6.300000, 94.755, -114.6560
6.400000, 94.844, -115.2109
6.500000, 94.935, -115.7802
6.600000, 95.025, -116.3658
6.700000, 95.116, -116.9800
6.800000, 95.207, -117.6080
6.900000, 95.295, -118.2585
7.000000, 95.380, -118.9253
7.100000, 95.462, -119.6183
7.200000, 95.541, -120.3228
7.300000, 95.615, -121.0369
7.400000, 95.683, -121.7537
7.500000, 95.747, -122.4853
7.620000, 95.816, -123.3544
7.750000, 95.884, -124.2703
7.880000, 95.945, -125.1720
8.000000, 95.996, -125.9755
8.120000, 96.044, -126.7492
8.250000, 96.093, -127.5558
8.380000, 96.140, -128.3316
8.500000, 96.184, -129.0265
8.620000, 96.228, -129.6984
8.750000, 96.276, -130.4131
8.850000, 96.314, -130.9596
9.000000, 96.371, -131.7700
9.120000, 96.417, -132.4219
9.250000, 96.464, -133.1398
9.380000, 96.509, -133.8634
9.500000, 96.548, -134.5354
9.620000, 96.582, -135.2044
9.750000, 96.612, -135.9246
9.880000, 96.628, -136.6272
10.000000, 96.628, -137.2453
10.150000, 96.611, -138.0094
10.300000, 96.581, -138.6915
10.440000, 96.543, -139.2477
10.600000, 96.497, -139.7849
10.750000, 96.457, -140.1850
10.900000, 96.424, -140.4962
11.060000, 96.401, -140.7761
11.200000, 96.392, -141.0029
11.380000, 96.395, -141.2594
11.500000, 96.406, -141.4232
11.720000, 96.440, -141.7448
11.800000, 96.457, -141.8796
12.060000, 96.523, -142.4151
12.200000, 96.561, -142.7977
12.410000, 96.614, -143.4236
12.500000, 96.633, -143.7028
12.650000, 96.658, -144.1767
12.800000, 96.675, -144.6444
13.150000, 96.690, -145.6985
13.200000, 96.691, -145.8441
13.400000, 96.691, -146.3830
13.600000, 96.691, -146.8570
13.800000, 96.692, -147.2748
14.000000, 96.696, -147.6630
14.300000, 96.709, -148.2971
14.500000, 96.717, -148.7238
14.750000, 96.722, -149.2623
15.000000, 96.723, -149.8022
15.250000, 96.723, -150.3801
15.500000, 96.719, -150.9273
15.750000, 96.711, -151.4366
16.000000, 96.701, -151.9157
16.250000, 96.692, -152.4242
16.500000, 96.683, -152.9283
16.750000, 96.673, -153.4318
17.000000, 96.660, -153.9316
17.250000, 96.646, -154.4439
17.500000, 96.630, -154.9303
17.750000, 96.614, -155.3850
18.000000, 96.601, -155.8196
18.250000, 96.593, -156.2709
18.500000, 96.588, -156.7346
18.750000, 96.583, -157.2138
19.000000, 96.575, -157.7024
19.250000, 96.563, -158.2047
19.500000, 96.546, -158.6711
19.750000, 96.526, -159.0827
20.000000, 96.507, -159.4345
20.299999, 96.490, -159.8242
20.600000, 96.480, -160.1757
20.900000, 96.473, -160.5105
21.200001, 96.461, -160.8382
21.400000, 96.450, -161.0289
21.799999, 96.424, -161.2735
22.000000, 96.415, -161.3226
22.400000, 96.420, -161.3687
22.700001, 96.445, -161.4320
23.000000, 96.476, -161.6036
23.299999, 96.494, -161.9047
23.600000, 96.484, -162.2321
24.000000, 96.425, -162.4610
24.299999, 96.369, -162.3463
24.700001, 96.334, -161.7942
25.000000, 96.365, -161.2728
25.400000, 96.478, -160.8510
25.799999, 96.612, -160.9561
26.200001, 96.702, -161.4807
26.500000, 96.727, -161.9373
26.900000, 96.726, -162.3844
27.200001, 96.728, -162.5800
27.600000, 96.756, -162.8071
28.000000, 96.801, -163.1980
28.500000, 96.822, -163.9518
29.000000, 96.776, -164.5852
29.500000, 96.722, -164.7777
30.000000, 96.730, -164.7439
30.400000, 96.774, -164.8850
30.700001, 96.805, -165.1407
31.100000, 96.822, -165.5793
31.500000, 96.811, -165.9608
32.000000, 96.797, -166.2180
32.500000, 96.815, -166.4322
33.000000, 96.842, -166.8295
33.500000, 96.835, -167.3597
34.000000, 96.795, -167.7463
34.500000, 96.760, -167.8792
35.000000, 96.763, -167.9189
35.500000, 96.799, -168.1331
36.000000, 96.834, -168.6304
36.500000, 96.835, -169.3229
37.000000, 96.792, -169.9981
37.500000, 96.725, -170.4712
38.200001, 96.652, -170.7615
38.700001, 96.640, -170.9643
39.500000, 96.624, -171.6337
40.000000, 96.578, -172.0716
40.599998, 96.507, -172.3308
41.200001, 96.467, -172.3689
41.799999, 96.453, -172.4681
42.500000, 96.415, -172.6720
43.099998, 96.357, -172.6258
43.700001, 96.315, -172.2673
44.400002, 96.323, -171.7319
45.000000, 96.355, -171.4513
45.500000, 96.372, -171.3518
46.200001, 96.363, -171.1810
46.799999, 96.346, -170.8552
47.500000, 96.345, -170.3454
48.200001, 96.360, -169.8132
48.700001, 96.379, -169.3816
49.400002, 96.441, -168.7295
50.000000, 96.535, -168.3374
50.799999, 96.667, -168.2683
51.500000, 96.755, -168.4044
52.200001, 96.838, -168.5443
53.000000, 96.945, -168.8520
53.799999, 97.040, -169.3831
54.500000, 97.109, -169.9603
55.200001, 97.162, -170.6731
56.000000, 97.176, -171.5848
57.000000, 97.127, -172.4057
58.000000, 97.097, -172.6652
59.000000, 97.140, -173.0065
60.000000, 97.164, -173.6957
60.799999, 97.157, -174.1471
61.500000, 97.160, -174.5005
62.200001, 97.154, -174.8912
63.000000, 97.130, -175.2183
64.000000, 97.124, -175.4836
65.000000, 97.110, -175.9314
66.000000, 97.059, -176.1500
67.000000, 97.044, -176.1899
68.000000, 97.038, -176.3999
69.000000, 97.022, -176.5960
70.000000, 97.016, -176.8031
71.000000, 97.001, -177.1059
72.000000, 96.966, -177.3293
73.000000, 96.931, -177.3947
74.000000, 96.898, -177.4064
75.000000, 96.856, -177.3920
76.199997, 96.785, -177.1605
77.500000, 96.745, -176.6696
78.800003, 96.726, -176.2589
80.000000, 96.755, -175.8650
81.199997, 96.802, -175.8435
82.500000, 96.834, -175.7354
83.800003, 96.902, -175.4966
85.000000, 96.996, -175.3373
86.199997, 97.095, -175.3687
87.500000, 97.186, -175.5389
88.500000, 97.246, -175.7010
90.000000, 97.354, -175.9787
91.199997, 97.466, -176.5310
92.500000, 97.573, -177.4603
93.800003, 97.660, -178.5890
95.000000, 97.702, -179.7818
96.199997, 97.685, 179.0431
97.500000, 97.605, 177.9348
98.800003, 97.463, 177.0445
100.000000, 97.294, 176.5576
101.500000, 97.087, 176.4025
103.000000, 96.934, 176.5996
104.400002, 96.842, 176.9583
106.000000, 96.790, 177.5958
107.500000, 96.775, 178.2961
109.000000, 96.781, 178.9316
110.599998, 96.785, 179.3079
112.000000, 96.786, 179.5305
113.800003, 96.825, 179.6830
115.000000, 96.874, 179.7708
117.199997, 97.037, 179.9778
118.000000, 97.107, 179.9374
120.599998, 97.288, 179.3759
122.000000, 97.346, 178.9231
124.099998, 97.409, 178.1622
125.000000, 97.435, 177.8967
126.500000, 97.504, 177.4413
128.000000, 97.573, 176.6940
131.500000, 97.552, 174.8613
132.000000, 97.545, 174.6397
134.000000, 97.507, 173.6153
136.000000, 97.428, 172.6284
138.000000, 97.343, 172.1072
140.000000, 97.298, 171.8778
143.000000, 97.283, 171.3299
145.000000, 97.265, 170.5945
147.500000, 97.209, 169.5433
150.000000, 97.130, 168.7256
152.500000, 97.029, 168.1226
155.000000, 96.900, 167.5103
157.500000, 96.755, 166.8703
160.000000, 96.631, 166.5477
162.500000, 96.531, 166.2732
165.000000, 96.380, 165.9166
167.500000, 96.203, 165.7423
170.000000, 96.052, 165.7220
172.500000, 95.919, 165.7898
175.000000, 95.784, 165.9211
177.500000, 95.654, 166.1218
180.000000, 95.536, 166.4041
182.500000, 95.428, 166.7686
185.000000, 95.324, 167.1596
187.500000, 95.221, 167.5503
190.000000, 95.132, 167.9959
192.500000, 95.058, 168.4543
195.000000, 94.995, 168.9478
197.500000, 94.948, 169.4150
200.000000, 94.909, 169.8322
203.000000, 94.859, 170.3181
206.000000, 94.807, 170.8882
209.000000, 94.768, 171.4415
212.000000, 94.734, 171.9299
214.000000, 94.713, 172.2523
218.000000, 94.683, 172.8370
220.000000, 94.673, 173.1467
224.000000, 94.664, 173.8179
227.000000, 94.669, 174.2360
230.000000, 94.678, 174.5378
233.000000, 94.686, 174.7660
236.000000, 94.689, 174.9656
240.000000, 94.692, 175.2416
243.000000, 94.696, 175.4631
247.000000, 94.695, 175.7259
250.000000, 94.688, 175.9094
254.000000, 94.670, 176.1068
258.000000, 94.640, 176.2838
262.000000, 94.607, 176.6381
265.000000, 94.595, 177.0881
269.000000, 94.622, 177.6107
272.000000, 94.652, 177.7404
276.000000, 94.665, 177.7481
280.000000, 94.646, 177.8285
285.000000, 94.598, 178.1227
290.000000, 94.571, 178.6284
295.000000, 94.570, 179.0620
300.000000, 94.560, 179.4240
304.000000, 94.549, 179.7904
307.000000, 94.545, -179.8855
311.000000, 94.550, -179.3822
315.000000, 94.569, -178.7808
320.000000, 94.622, -178.0384
325.000000, 94.693, -177.4775
330.000000, 94.760, -176.9473
335.000000, 94.854, -176.3890
340.000000, 94.994, -176.0516
345.000000, 95.144, -176.2022
350.000000, 95.254, -176.6394
355.000000, 95.311, -177.1098
360.000000, 95.334, -177.5445
365.000000, 95.342, -177.8718
370.000000, 95.349, -178.1108
375.000000, 95.359, -178.3236
382.000000, 95.364, -178.6667
387.000000, 95.357, -178.9464
395.000000, 95.330, -179.3676
400.000000, 95.312, -179.5823
406.000000, 95.283, -179.7945
412.000000, 95.246, 179.9803
418.000000, 95.205, 179.8243
425.000000, 95.154, 179.7062
431.000000, 95.103, 179.6331
437.000000, 95.048, 179.5776
444.000000, 94.987, 179.5706
450.000000, 94.939, 179.6200
455.000000, 94.897, 179.6971
462.000000, 94.837, 179.8057
468.000000, 94.791, 179.9491
475.000000, 94.743, -179.8796
482.000000, 94.692, -179.7304
487.000000, 94.657, -179.6356
494.000000, 94.609, -179.4863
500.000000, 94.566, -179.2998
508.000000, 94.505, -179.0134
515.000000, 94.450, -178.7451
522.000000, 94.399, -178.3908
530.000000, 94.344, -177.9572
538.000000, 94.290, -177.5107
545.000000, 94.250, -177.0873
552.000000, 94.219, -176.6476
560.000000, 94.189, -176.1500
570.000000, 94.156, -175.5228
580.000000, 94.133, -174.8717
590.000000, 94.113, -174.2204
600.000000, 94.106, -173.5609
608.000000, 94.108, -173.0654
615.000000, 94.107, -172.6957
622.000000, 94.102, -172.3476
630.000000, 94.097, -171.8872
640.000000, 94.102, -171.2740
650.000000, 94.112, -170.7444
660.000000, 94.116, -170.2628
670.000000, 94.117, -169.7822
680.000000, 94.112, -169.2620
690.000000, 94.112, -168.6932
700.000000, 94.122, -168.1572
710.000000, 94.140, -167.6382
720.000000, 94.167, -167.1200
730.000000, 94.195, -166.6335
740.000000, 94.226, -166.1753
750.000000, 94.260, -165.7587
762.000000, 94.295, -165.2997
775.000000, 94.330, -164.7862
788.000000, 94.367, -164.3216
800.000000, 94.405, -164.0123
812.000000, 94.442, -163.6956
825.000000, 94.475, -163.3656
838.000000, 94.503, -163.0978
850.000000, 94.524, -162.9033
862.000000, 94.540, -162.7186
875.000000, 94.544, -162.5174
885.000000, 94.539, -162.3652
900.000000, 94.517, -162.1135
912.000000, 94.490, -161.8601
925.000000, 94.453, -161.5379
938.000000, 94.405, -161.1734
950.000000, 94.346, -160.7326
962.000000, 94.273, -160.1247
975.000000, 94.185, -159.1084
988.000000, 94.125, -157.5899
1000.000000, 94.159, -155.7098
1015.000000, 94.400, -153.5176
1030.000000, 94.759, -152.7682
1044.000000, 95.029, -153.2789
1060.000000, 95.188, -154.3071
1075.000000, 95.231, -155.1566
1090.000000, 95.224, -155.7614
1106.000000, 95.194, -156.1365
1120.000000, 95.162, -156.2547
1138.000000, 95.115, -156.2467
1150.000000, 95.081, -156.1557
1172.000000, 95.007, -155.6807
1180.000000, 94.979, -155.4167
1206.000000, 94.917, -154.2598
1220.000000, 94.921, -153.5129
1241.000000, 94.978, -152.4400
1250.000000, 95.016, -152.0289
1265.000000, 95.089, -151.4429
1280.000000, 95.166, -150.9604
1315.000000, 95.334, -150.1530
1320.000000, 95.354, -150.0642
1340.000000, 95.422, -149.7541
1360.000000, 95.456, -149.4428
1380.000000, 95.480, -149.1549
1400.000000, 95.512, -148.8896
1430.000000, 95.554, -148.4197
1450.000000, 95.577, -148.0927
1475.000000, 95.604, -147.6481
1500.000000, 95.622, -147.1674
1525.000000, 95.627, -146.5742
1550.000000, 95.624, -145.9022
1575.000000, 95.623, -145.1874
1600.000000, 95.623, -144.4329
1625.000000, 95.623, -143.5927
1650.000000, 95.628, -142.6523
1675.000000, 95.644, -141.6028
1700.000000, 95.677, -140.3616
1725.000000, 95.737, -138.9829
1750.000000, 95.840, -137.5467
1775.000000, 95.993, -136.2588
1800.000000, 96.186, -135.2389
1825.000000, 96.396, -134.5375
1850.000000, 96.602, -134.1368
1875.000000, 96.792, -133.9937
1900.000000, 96.954, -134.0054
1925.000000, 97.088, -134.0666
1950.000000, 97.201, -134.1396
1975.000000, 97.302, -134.2267
2000.000000, 97.395, -134.3263
2030.000000, 97.492, -134.5001
2060.000000, 97.570, -134.6836
2090.000000, 97.632, -134.8938
2120.000000, 97.679, -135.1070
2140.000000, 97.702, -135.2509
2180.000000, 97.726, -135.4512
2200.000000, 97.722, -135.4846
2240.000000, 97.688, -135.2962
2270.000000, 97.663, -134.8471
2300.000000, 97.664, -134.2179
2330.000000, 97.706, -133.6087
2360.000000, 97.779, -133.1529
2400.000000, 97.889, -132.8429
2430.000000, 97.967, -132.7476
2470.000000, 98.060, -132.7094
2500.000000, 98.119, -132.7480
2540.000000, 98.184, -132.9226
2580.000000, 98.228, -133.2298
2620.000000, 98.246, -133.5500
2650.000000, 98.249, -133.7684
2690.000000, 98.245, -134.0106
2720.000000, 98.236, -134.2693
2760.000000, 98.201, -134.6834
2800.000000, 98.131, -135.0434
2850.000000, 98.026, -135.3744
2900.000000, 97.926, -135.6748
2950.000000, 97.805, -136.1926
3000.000000, 97.609, -136.7849
3040.000000, 97.392, -137.1399
3070.000000, 97.197, -137.2359
3110.000000, 96.910, -137.0318
3150.000000, 96.626, -136.4107
3200.000000, 96.302, -135.2849
3250.000000, 95.996, -134.0898
3300.000000, 95.676, -132.8268
3350.000000, 95.306, -131.3239
3400.000000, 94.900, -129.1364
3450.000000, 94.522, -126.2191
3500.000000, 94.210, -122.7483
3550.000000, 93.965, -118.7859
3600.000000, 93.795, -114.3438
3650.000000, 93.741, -109.3565
3700.000000, 93.863, -104.1418
3750.000000, 94.174, -99.3201
3820.000000, 94.794, -94.4165
3870.000000, 95.199, -92.2771
3950.000000, 95.666, -89.0271
4000.000000, 95.992, -86.4133
4060.000000, 96.517, -83.5349
4120.000000, 97.118, -81.5452
4180.000000, 97.737, -80.3459
4250.000000, 98.471, -80.0127
4310.000000, 99.049, -80.7782
4370.000000, 99.505, -82.3454
4440.000000, 99.863, -84.6703
4500.000000, 100.032, -86.7649
4550.000000, 100.087, -88.3976
4620.000000, 100.036, -90.3698
4680.000000, 99.899, -91.4003
4750.000000, 99.716, -91.7131
4820.000000, 99.548, -91.3580
4870.000000, 99.437, -90.7781
4940.000000, 99.315, -89.4112
5000.000000, 99.270, -87.8417
5080.000000, 99.301, -85.3721
5150.000000, 99.410, -82.8365
5220.000000, 99.644, -79.7342
5300.000000, 100.206, -75.8534
5380.000000, 101.168, -73.2233
5450.000000, 102.178, -73.4464
5520.000000, 103.122, -75.9735
5600.000000, 104.020, -80.6842
5700.000000, 104.882, -88.5867
5800.000000, 105.353, -98.6170
5900.000000, 105.262, -109.6668
6000.000000, 104.581, -120.1496
6080.000000, 103.693, -126.9966
6150.000000, 102.757, -131.5477
6220.000000, 101.741, -134.7801
6300.000000, 100.549, -136.9018
6400.000000, 99.113, -137.8066
6500.000000, 97.775, -137.3821
6600.000000, 96.498, -136.0444
6700.000000, 95.232, -133.9994
6800.000000, 93.928, -131.0802
6900.000000, 92.582, -126.7664
7000.000000, 91.254, -120.4371
7100.000000, 90.048, -111.9317
7200.000000, 89.066, -101.7416
7300.000000, 88.290, -90.6496
7400.000000, 87.594, -77.7648
7500.000000, 87.392, -58.1083
7620.000000, 89.747, -27.1698
7750.000000, 94.215, -14.4618
7880.000000, 97.371, -22.1360
8000.000000, 98.672, -33.8317
8120.000000, 98.921, -44.0549
8250.000000, 98.430, -51.5777
8380.000000, 97.501, -53.2967
8500.000000, 96.936, -48.3183
8620.000000, 97.484, -40.1570
8750.000000, 99.355, -35.8369
8850.000000, 101.146, -38.6841
9000.000000, 103.437, -53.1379
9120.000000, 104.291, -71.4317
9250.000000, 103.775, -93.5122
9380.000000, 101.918, -112.6298
9500.000000, 99.553, -125.6670
9620.000000, 97.029, -134.9649
9750.000000, 94.385, -142.8114
9880.000000, 91.884, -150.3473
10000.000000, 89.647, -157.8359
10150.000000, 87.148, -168.2680
10300.000000, 85.976, 178.3841
10440.000000, 86.626, 161.4779
10600.000000, 88.327, 140.4817
10750.000000, 90.105, 123.6909
10900.000000, 91.719, 109.1547
11060.000000, 92.717, 95.7939
11200.000000, 93.032, 88.6163
11380.000000, 93.691, 86.3646
11500.000000, 94.555, 85.9071
11720.000000, 96.316, 82.1620
11800.000000, 96.881, 80.1276
12060.000000, 98.372, 72.7563
12200.000000, 99.059, 68.9019
12410.000000, 100.166, 62.4813
12500.000000, 100.657, 58.7960
12650.000000, 101.334, 50.8187
12800.000000, 101.625, 40.8536
13150.000000, 100.229, 17.2404
13200.000000, 99.820, 14.5321
13400.000000, 97.878, 6.3080
13600.000000, 95.842, 1.2222
13800.000000, 93.817, -4.6044
14000.000000, 91.224, -13.3817
14300.000000, 85.476, -33.8063
14500.000000, 85.123, 136.5491
14750.000000, 89.160, 124.3125
15000.000000, 90.798, 106.6986
15250.000000, 89.826, 98.3021
15500.000000, 88.784, 106.1737
15750.000000, 89.158, 115.2899
16000.000000, 89.899, 121.8185
16250.000000, 90.707, 126.1793
16500.000000, 91.300, 130.3138
16750.000000, 92.557, 137.6556
17000.000000, 94.721, 138.2523
17250.000000, 95.758, 128.3260
17500.000000, 95.031, 120.2432
17750.000000, 94.055, 120.4080
18000.000000, 93.719, 121.6723
18250.000000, 93.140, 120.6400
18500.000000, 91.933, 123.1158
18750.000000, 91.102, 133.6082
19000.000000, 91.726, 147.5980
19250.000000, 93.056, 155.4664
19500.000000, 93.697, 156.2094
19750.000000, 93.267, 155.9028
20000.000000, 92.210, 158.9144
20300.000000, 91.063, 165.5359
20600.000000, 90.141, 169.4699
20900.000000, 88.686, 171.4517
21200.000000, 86.834, 175.2703
21400.000000, 85.670, 177.9625
21800.000000, 82.600, 176.9404
22000.000000, 79.813, 175.1090
22400.000000, 71.140, -172.6356
22700.000000, 62.906, -137.7521
23000.000000, 54.147, -121.1344
23300.000000, 45.233, -72.0348
23600.000000, 37.115, -86.7434
24000.000000, 32.363, -22.9291
