* Measurement data measured by REW V5.31
* Source: Headset (DS by VECLAN.COM), MICROPHONE (Master Volume), L, volume: 0.960. Timing signal peak level -7.5 dBFS, measurement signal peak level -7.5 dBFS
* Format: 4M Log Swept Sine, 1 sweep at -12.0 dBFS using an acoustic timing reference
* Dated: Apr 13, 2024 9:29:47 PM
* REW Settings:
*  C-weighting compensation: Off
*  Target level: 85.0 dB
* Note: ; Delay -0.0277 ms (-9.5 mm, -0.37 in) using estimated IR delay relative to Acoustic reference played from HEADPHONE R with no timing offset
* Measurement: Philips SHP9500 R3
* Smoothing: 1/24 octave
* Frequency Step: 1/48 octave
* Start Frequency: 1.000 Hz
*
* Freq(Hz), SPL(dB), Phase(degrees)
1.000000, 54.837, -38.9131
1.015000, 54.797, -38.5311
1.030000, 54.769, -38.0825
1.044000, 54.756, -37.6010
1.060000, 54.757, -36.9741
1.075000, 54.775, -36.3102
1.090000, 54.810, -35.5693
1.106000, 54.869, -34.6768
1.120000, 54.937, -33.7819
1.138000, 55.049, -32.4692
1.150000, 55.137, -31.5030
1.172000, 55.324, -29.5812
1.180000, 55.400, -28.8474
1.206000, 55.670, -26.3513
1.220000, 55.829, -24.9608
1.241000, 56.084, -22.8536
1.250000, 56.198, -21.9525
1.265000, 56.394, -20.4669
1.280000, 56.595, -19.0151
1.315000, 57.080, -15.8382
1.320000, 57.151, -15.4153
1.340000, 57.433, -13.8168
1.360000, 57.713, -12.3812
1.380000, 57.989, -11.1638
1.400000, 58.258, -10.1521
1.430000, 58.641, -9.0062
1.450000, 58.879, -8.4862
1.475000, 59.157, -8.0400
1.500000, 59.426, -7.6495
1.525000, 59.693, -7.2524
1.550000, 59.958, -6.8658
1.575000, 60.220, -6.5334
1.600000, 60.480, -6.2901
1.625000, 60.738, -6.1107
1.650000, 60.993, -6.0062
1.675000, 61.245, -5.9847
1.700000, 61.494, -6.0526
1.725000, 61.740, -6.2148
1.750000, 61.982, -6.4751
1.775000, 62.221, -6.8536
1.800000, 62.456, -7.3681
1.825000, 62.687, -7.9784
1.850000, 62.915, -8.6495
1.875000, 63.140, -9.3306
1.900000, 63.362, -10.0026
1.925000, 63.581, -10.6630
1.950000, 63.797, -11.3123
1.975000, 64.009, -11.9701
2.000000, 64.218, -12.6558
2.030000, 64.465, -13.4764
2.060000, 64.706, -14.3036
2.090000, 64.941, -15.1454
2.120000, 65.170, -16.0100
2.140000, 65.320, -16.6033
2.180000, 65.611, -17.8612
2.200000, 65.752, -18.5368
2.240000, 66.026, -19.9245
2.270000, 66.224, -20.9761
2.300000, 66.416, -22.0228
2.330000, 66.601, -23.0562
2.360000, 66.782, -24.0712
2.400000, 67.014, -25.4392
2.430000, 67.182, -26.4460
2.470000, 67.399, -27.7562
2.500000, 67.557, -28.7182
2.540000, 67.761, -29.9819
2.580000, 67.957, -31.2618
2.620000, 68.145, -32.6008
2.650000, 68.280, -33.6136
2.690000, 68.452, -34.9583
2.720000, 68.576, -35.9513
2.760000, 68.735, -37.2399
2.800000, 68.886, -38.5190
2.850000, 69.065, -40.0428
2.900000, 69.234, -41.4713
2.950000, 69.393, -42.8296
3.000000, 69.541, -44.2122
3.040000, 69.649, -45.3291
3.070000, 69.727, -46.1562
3.110000, 69.824, -47.2318
3.150000, 69.915, -48.2631
3.200000, 70.023, -49.5007
3.250000, 70.125, -50.6432
3.300000, 70.222, -51.6734
3.350000, 70.310, -52.6324
3.400000, 70.390, -53.5885
3.450000, 70.462, -54.5152
3.500000, 70.529, -55.3814
3.550000, 70.593, -56.1681
3.600000, 70.657, -56.8842
3.650000, 70.722, -57.5015
3.700000, 70.787, -58.0146
3.750000, 70.848, -58.4466
3.820000, 70.930, -58.9759
3.870000, 70.989, -59.2897
3.950000, 71.095, -59.6711
4.000000, 71.172, -59.8535
4.060000, 71.276, -59.9907
4.120000, 71.391, -60.0142
4.180000, 71.514, -59.9590
4.250000, 71.671, -59.8753
4.310000, 71.818, -59.8005
4.370000, 71.977, -59.7533
4.440000, 72.182, -59.7395
4.500000, 72.374, -59.6952
4.550000, 72.544, -59.6484
4.620000, 72.793, -59.6458
4.680000, 73.012, -59.7245
4.750000, 73.273, -59.9363
4.820000, 73.540, -60.2729
4.870000, 73.737, -60.5495
4.940000, 74.018, -60.9819
5.000000, 74.260, -61.4275
5.080000, 74.574, -62.1509
5.150000, 74.840, -62.9064
5.220000, 75.098, -63.7790
5.300000, 75.386, -64.8624
5.380000, 75.662, -66.0086
5.450000, 75.889, -67.0753
5.520000, 76.100, -68.1927
5.600000, 76.325, -69.5603
5.700000, 76.582, -71.3563
5.800000, 76.808, -73.1491
5.900000, 77.002, -74.9306
6.000000, 77.162, -76.7544
6.080000, 77.268, -78.2221
6.150000, 77.345, -79.4490
6.220000, 77.408, -80.6177
6.300000, 77.462, -81.8920
6.400000, 77.503, -83.4349
6.500000, 77.519, -84.8686
6.600000, 77.517, -86.1010
6.700000, 77.493, -87.1514
6.800000, 77.452, -88.0400
6.900000, 77.405, -88.7443
7.000000, 77.358, -89.2138
7.100000, 77.310, -89.4590
7.200000, 77.266, -89.5103
7.300000, 77.240, -89.4062
7.400000, 77.236, -89.1361
7.500000, 77.253, -88.7160
7.620000, 77.305, -88.1064
7.750000, 77.406, -87.4305
7.880000, 77.554, -86.7515
8.000000, 77.721, -86.2031
8.120000, 77.907, -85.8208
8.250000, 78.131, -85.5747
8.380000, 78.361, -85.5024
8.500000, 78.567, -85.6135
8.620000, 78.768, -85.8677
8.750000, 78.971, -86.2496
8.850000, 79.113, -86.6011
9.000000, 79.304, -87.2036
9.120000, 79.438, -87.6983
9.250000, 79.566, -88.2089
9.380000, 79.676, -88.6867
9.500000, 79.768, -89.0745
9.620000, 79.855, -89.3852
9.750000, 79.942, -89.6475
9.880000, 80.023, -89.8442
10.000000, 80.092, -89.9583
10.150000, 80.175, -90.0713
10.300000, 80.261, -90.1475
10.440000, 80.346, -90.1996
10.600000, 80.451, -90.2730
10.750000, 80.558, -90.3848
10.900000, 80.669, -90.5400
11.060000, 80.787, -90.7896
11.200000, 80.888, -91.0922
11.380000, 81.009, -91.5160
11.500000, 81.081, -91.8125
11.720000, 81.198, -92.3481
11.800000, 81.238, -92.5304
12.060000, 81.355, -93.0813
12.200000, 81.417, -93.3640
12.410000, 81.509, -93.7134
12.500000, 81.548, -93.8370
12.650000, 81.614, -94.0114
12.800000, 81.682, -94.1566
13.150000, 81.853, -94.4819
13.200000, 81.879, -94.5357
13.400000, 81.987, -94.7512
13.600000, 82.097, -94.9736
13.800000, 82.208, -95.2064
14.000000, 82.317, -95.4519
14.300000, 82.477, -95.9072
14.500000, 82.578, -96.2100
14.750000, 82.700, -96.5765
15.000000, 82.817, -96.9275
15.250000, 82.935, -97.3126
15.500000, 83.050, -97.6723
15.750000, 83.159, -97.9986
16.000000, 83.264, -98.2876
16.250000, 83.367, -98.5822
16.500000, 83.469, -98.8392
16.750000, 83.572, -99.0640
17.000000, 83.679, -99.2721
17.250000, 83.790, -99.5038
17.500000, 83.903, -99.7441
17.750000, 84.015, -99.9977
18.000000, 84.126, -100.2696
18.250000, 84.233, -100.5776
18.500000, 84.336, -100.8928
18.750000, 84.435, -101.2024
19.000000, 84.531, -101.4981
19.250000, 84.626, -101.7990
19.500000, 84.721, -102.0795
19.750000, 84.815, -102.3436
20.000000, 84.912, -102.5994
20.299999, 85.028, -102.9379
20.600000, 85.144, -103.2858
20.900000, 85.258, -103.6429
21.200001, 85.369, -104.0200
21.400000, 85.439, -104.2725
21.799999, 85.577, -104.7546
22.000000, 85.644, -104.9861
22.400000, 85.777, -105.4704
22.700001, 85.873, -105.8299
23.000000, 85.964, -106.1847
23.299999, 86.047, -106.5390
23.600000, 86.124, -106.8528
24.000000, 86.219, -107.1745
24.299999, 86.290, -107.3535
24.700001, 86.391, -107.4990
25.000000, 86.473, -107.5577
25.400000, 86.596, -107.6303
25.799999, 86.736, -107.7295
26.200001, 86.891, -107.9539
26.500000, 87.010, -108.2590
26.900000, 87.156, -108.8596
27.200001, 87.242, -109.4195
27.600000, 87.317, -110.1662
28.000000, 87.359, -110.7398
28.500000, 87.418, -111.1645
29.000000, 87.526, -111.5645
29.500000, 87.642, -112.3474
30.000000, 87.676, -113.3362
30.400000, 87.628, -113.8083
30.700001, 87.580, -113.7328
31.100000, 87.571, -113.0592
31.500000, 87.685, -112.1255
32.000000, 87.985, -111.4828
32.500000, 88.318, -111.9193
33.000000, 88.555, -113.0174
33.500000, 88.686, -114.0666
34.000000, 88.783, -114.7076
34.500000, 88.901, -115.0824
35.000000, 89.037, -115.4328
35.500000, 89.169, -115.8190
36.000000, 89.293, -116.1694
36.500000, 89.423, -116.4961
37.000000, 89.558, -116.8822
37.500000, 89.687, -117.3803
38.200001, 89.841, -118.1724
38.700001, 89.937, -118.7458
39.500000, 90.079, -119.6869
40.000000, 90.159, -120.3104
40.599998, 90.240, -121.0754
41.200001, 90.302, -121.7572
41.799999, 90.359, -122.2670
42.500000, 90.453, -122.7086
43.099998, 90.560, -123.1527
43.700001, 90.661, -123.7330
44.400002, 90.754, -124.4324
45.000000, 90.824, -124.9767
45.500000, 90.880, -125.4467
46.200001, 90.935, -126.1433
46.799999, 90.954, -126.6361
47.500000, 90.977, -126.9791
48.200001, 91.021, -127.2325
48.700001, 91.056, -127.4304
49.400002, 91.098, -127.6342
50.000000, 91.144, -127.6543
50.799999, 91.246, -127.5676
51.500000, 91.368, -127.5403
52.200001, 91.507, -127.5980
53.000000, 91.677, -127.7671
53.799999, 91.847, -128.0386
54.500000, 91.994, -128.3111
55.200001, 92.145, -128.6338
56.000000, 92.317, -129.1190
57.000000, 92.522, -129.8503
58.000000, 92.729, -130.7194
59.000000, 92.927, -131.7993
60.000000, 93.116, -132.9610
60.799999, 93.272, -134.0118
61.500000, 93.394, -135.0851
62.200001, 93.489, -136.1976
63.000000, 93.575, -137.3844
64.000000, 93.673, -138.7783
65.000000, 93.755, -140.1738
66.000000, 93.818, -141.5380
67.000000, 93.863, -142.8790
68.000000, 93.890, -144.1535
69.000000, 93.909, -145.3617
70.000000, 93.920, -146.5229
71.000000, 93.923, -147.6213
72.000000, 93.920, -148.6816
73.000000, 93.906, -149.6723
74.000000, 93.886, -150.5705
75.000000, 93.864, -151.3676
76.199997, 93.845, -152.2425
77.500000, 93.831, -153.1521
78.800003, 93.823, -154.0476
80.000000, 93.817, -154.8982
81.199997, 93.807, -155.7380
82.500000, 93.794, -156.6370
83.800003, 93.773, -157.5387
85.000000, 93.745, -158.3514
86.199997, 93.707, -159.1198
87.500000, 93.657, -159.8875
88.500000, 93.611, -160.4067
90.000000, 93.538, -161.0164
91.199997, 93.489, -161.3351
92.500000, 93.461, -161.5893
93.800003, 93.457, -161.8729
95.000000, 93.463, -162.2289
96.199997, 93.466, -162.6828
97.500000, 93.457, -163.2253
98.800003, 93.437, -163.7603
100.000000, 93.414, -164.2273
101.500000, 93.385, -164.7944
103.000000, 93.355, -165.3233
104.400002, 93.330, -165.7834
106.000000, 93.299, -166.2834
107.500000, 93.265, -166.7233
109.000000, 93.228, -167.1376
110.599998, 93.189, -167.5757
112.000000, 93.154, -167.9421
113.800003, 93.108, -168.3611
115.000000, 93.079, -168.6148
117.199997, 93.025, -169.0471
118.000000, 93.005, -169.1992
120.599998, 92.947, -169.6710
122.000000, 92.917, -169.9623
124.099998, 92.871, -170.3424
125.000000, 92.852, -170.4938
126.500000, 92.820, -170.7341
128.000000, 92.785, -170.9581
131.500000, 92.711, -171.3082
132.000000, 92.702, -171.3521
134.000000, 92.666, -171.5134
136.000000, 92.632, -171.6625
138.000000, 92.596, -171.8022
140.000000, 92.562, -171.8959
143.000000, 92.515, -171.9534
145.000000, 92.497, -171.9648
147.500000, 92.489, -172.0754
150.000000, 92.476, -172.2562
152.500000, 92.447, -172.4186
155.000000, 92.417, -172.5369
157.500000, 92.388, -172.6429
160.000000, 92.357, -172.6345
162.500000, 92.337, -172.5618
165.000000, 92.327, -172.5733
167.500000, 92.322, -172.6294
170.000000, 92.325, -172.6652
172.500000, 92.327, -172.7243
175.000000, 92.329, -172.8434
177.500000, 92.329, -172.9780
180.000000, 92.328, -173.0353
182.500000, 92.326, -173.1339
185.000000, 92.307, -173.3652
187.500000, 92.286, -173.5271
190.000000, 92.286, -173.6181
192.500000, 92.278, -173.7353
195.000000, 92.250, -173.7566
197.500000, 92.230, -173.7596
200.000000, 92.224, -173.8203
203.000000, 92.232, -173.9344
206.000000, 92.243, -174.1739
209.000000, 92.249, -174.4515
212.000000, 92.242, -174.8716
214.000000, 92.220, -175.2024
218.000000, 92.148, -175.8024
220.000000, 92.099, -176.0161
224.000000, 91.973, -176.2550
227.000000, 91.880, -176.2122
230.000000, 91.809, -176.0076
233.000000, 91.753, -175.7621
236.000000, 91.710, -175.5345
240.000000, 91.670, -175.2888
243.000000, 91.638, -175.0751
247.000000, 91.592, -174.7671
250.000000, 91.559, -174.5391
254.000000, 91.528, -174.2718
258.000000, 91.507, -174.1227
262.000000, 91.482, -173.9274
265.000000, 91.467, -173.7220
269.000000, 91.453, -173.5253
272.000000, 91.448, -173.3896
276.000000, 91.447, -173.1409
280.000000, 91.434, -172.8714
285.000000, 91.399, -172.5825
290.000000, 91.377, -172.3136
295.000000, 91.372, -172.0817
300.000000, 91.354, -171.7384
304.000000, 91.339, -171.5554
307.000000, 91.337, -171.4245
311.000000, 91.336, -171.2521
315.000000, 91.330, -170.9956
320.000000, 91.322, -170.5646
325.000000, 91.324, -170.0819
330.000000, 91.351, -169.6373
335.000000, 91.380, -169.3505
340.000000, 91.389, -169.1744
345.000000, 91.382, -168.9305
350.000000, 91.387, -168.6161
355.000000, 91.400, -168.3058
360.000000, 91.402, -167.8589
365.000000, 91.422, -167.3874
370.000000, 91.461, -167.0809
375.000000, 91.498, -166.9238
382.000000, 91.526, -166.6952
387.000000, 91.548, -166.4792
395.000000, 91.584, -166.2154
400.000000, 91.601, -166.0809
406.000000, 91.620, -165.8732
412.000000, 91.638, -165.6808
418.000000, 91.649, -165.5449
425.000000, 91.661, -165.4039
431.000000, 91.663, -165.1504
437.000000, 91.671, -164.8676
444.000000, 91.684, -164.5450
450.000000, 91.696, -164.2502
455.000000, 91.707, -163.9857
462.000000, 91.725, -163.6423
468.000000, 91.744, -163.3503
475.000000, 91.774, -163.0671
482.000000, 91.800, -162.7782
487.000000, 91.817, -162.5063
494.000000, 91.851, -162.1242
500.000000, 91.887, -161.8310
508.000000, 91.940, -161.4853
515.000000, 91.994, -161.2330
522.000000, 92.059, -161.1386
530.000000, 92.093, -161.3910
538.000000, 92.028, -161.2447
545.000000, 92.024, -160.3899
552.000000, 92.096, -159.8194
560.000000, 92.177, -159.5605
570.000000, 92.240, -159.2726
580.000000, 92.303, -158.9568
590.000000, 92.364, -158.6841
600.000000, 92.415, -158.3653
608.000000, 92.457, -158.0708
615.000000, 92.498, -157.8414
622.000000, 92.540, -157.6283
630.000000, 92.591, -157.3965
640.000000, 92.649, -157.1551
650.000000, 92.698, -156.8611
660.000000, 92.753, -156.5474
670.000000, 92.816, -156.2782
680.000000, 92.880, -156.0406
690.000000, 92.948, -155.7882
700.000000, 93.030, -155.5462
710.000000, 93.106, -155.4437
720.000000, 93.169, -155.3256
730.000000, 93.235, -155.2153
740.000000, 93.305, -155.1329
750.000000, 93.366, -155.1173
762.000000, 93.416, -155.1291
775.000000, 93.463, -154.9397
788.000000, 93.536, -154.7565
800.000000, 93.591, -154.7592
812.000000, 93.631, -154.6682
825.000000, 93.673, -154.4643
838.000000, 93.742, -154.0983
850.000000, 93.827, -153.9726
862.000000, 93.898, -153.9352
875.000000, 93.971, -153.8860
885.000000, 94.022, -153.9025
900.000000, 94.086, -153.8933
912.000000, 94.145, -153.8086
925.000000, 94.227, -153.8232
938.000000, 94.290, -154.0607
950.000000, 94.319, -154.2418
962.000000, 94.337, -154.3490
975.000000, 94.349, -154.3492
988.000000, 94.371, -154.2412
1000.000000, 94.397, -154.2236
1015.000000, 94.404, -154.1820
1030.000000, 94.408, -153.8817
1044.000000, 94.461, -153.4099
1060.000000, 94.578, -153.0855
1075.000000, 94.674, -153.2561
1090.000000, 94.714, -153.3638
1106.000000, 94.791, -153.2326
1120.000000, 94.872, -153.2984
1138.000000, 94.989, -153.3971
1150.000000, 95.053, -153.6589
1172.000000, 95.090, -154.0183
1180.000000, 95.105, -153.9300
1206.000000, 95.237, -153.9618
1220.000000, 95.280, -154.2430
1241.000000, 95.319, -154.3380
1250.000000, 95.343, -154.2708
1265.000000, 95.421, -153.9373
1280.000000, 95.563, -153.8806
1315.000000, 95.723, -155.0987
1320.000000, 95.722, -155.2364
1340.000000, 95.672, -155.5826
1360.000000, 95.615, -155.0685
1380.000000, 95.672, -154.3349
1400.000000, 95.826, -153.9857
1430.000000, 96.037, -154.6094
1450.000000, 96.084, -155.1848
1475.000000, 96.148, -155.3220
1500.000000, 96.252, -155.7732
1525.000000, 96.258, -156.5148
1550.000000, 96.252, -156.3834
1575.000000, 96.319, -156.5471
1600.000000, 96.365, -156.5379
1625.000000, 96.490, -156.6894
1650.000000, 96.579, -157.6353
1675.000000, 96.550, -158.4501
1700.000000, 96.537, -158.7501
1725.000000, 96.550, -159.3162
1750.000000, 96.479, -160.1907
1775.000000, 96.341, -160.2968
1800.000000, 96.249, -159.9082
1825.000000, 96.244, -159.1974
1850.000000, 96.326, -159.0336
1875.000000, 96.364, -159.2850
1900.000000, 96.418, -159.6408
1925.000000, 96.378, -160.6624
1950.000000, 96.209, -160.9428
1975.000000, 96.051, -160.3656
2000.000000, 96.027, -159.0307
2030.000000, 96.183, -158.4473
2060.000000, 96.356, -158.8340
2090.000000, 96.394, -160.5657
2120.000000, 96.125, -161.6859
2140.000000, 95.948, -161.0527
2180.000000, 96.003, -159.9570
2200.000000, 96.017, -160.7329
2240.000000, 95.723, -162.0816
2270.000000, 95.313, -162.0336
2300.000000, 94.878, -159.6215
2330.000000, 94.820, -155.2131
2360.000000, 95.196, -152.6314
2400.000000, 95.565, -153.7876
2430.000000, 95.401, -154.7365
2470.000000, 95.129, -152.3999
2500.000000, 95.267, -149.8929
2540.000000, 95.670, -149.2017
2580.000000, 95.765, -150.4352
2620.000000, 95.604, -150.2937
2650.000000, 95.513, -149.0737
2690.000000, 95.628, -146.8549
2720.000000, 95.868, -146.1235
2760.000000, 96.074, -146.9244
2800.000000, 96.011, -147.2657
2850.000000, 96.051, -146.0661
2900.000000, 96.231, -146.4689
2950.000000, 96.096, -147.5764
3000.000000, 95.835, -146.7468
3040.000000, 95.726, -145.5878
3070.000000, 95.665, -144.7733
3110.000000, 95.576, -143.6865
3150.000000, 95.449, -142.2887
3200.000000, 95.303, -139.6222
3250.000000, 95.304, -135.8178
3300.000000, 95.552, -131.9916
3350.000000, 95.943, -129.1030
3400.000000, 96.383, -126.5440
3450.000000, 97.048, -124.3964
3500.000000, 97.768, -125.0908
3550.000000, 98.117, -127.3894
3600.000000, 98.251, -128.6520
3650.000000, 98.358, -129.7348
3700.000000, 98.286, -130.6883
3750.000000, 98.054, -129.8364
3820.000000, 98.115, -125.1120
3870.000000, 98.503, -122.7537
3950.000000, 99.049, -119.7741
4000.000000, 99.684, -117.4339
4060.000000, 100.489, -117.7457
4120.000000, 101.083, -118.3963
4180.000000, 101.857, -119.1146
4250.000000, 102.565, -123.1215
4310.000000, 102.867, -126.0746
4370.000000, 103.171, -128.7987
4440.000000, 103.306, -132.0133
4500.000000, 103.446, -133.2079
4550.000000, 103.732, -134.5058
4620.000000, 104.058, -137.9577
4680.000000, 104.238, -141.0175
4750.000000, 104.336, -145.5784
4820.000000, 104.090, -149.8190
4870.000000, 103.828, -151.7954
4940.000000, 103.429, -153.7145
5000.000000, 103.027, -154.1778
5080.000000, 102.612, -152.6049
5150.000000, 102.508, -150.0244
5220.000000, 102.715, -147.0706
5300.000000, 103.318, -144.9051
5380.000000, 104.124, -144.9439
5450.000000, 104.861, -147.0813
5520.000000, 105.450, -151.1293
5600.000000, 105.791, -156.7912
5700.000000, 105.792, -162.8817
5800.000000, 105.772, -166.7421
5900.000000, 106.003, -170.8173
6000.000000, 106.209, -176.8509
6080.000000, 106.197, 177.4806
6150.000000, 106.024, 172.3941
6220.000000, 105.718, 167.5262
6300.000000, 105.251, 162.4636
6400.000000, 104.504, 156.7664
6500.000000, 103.565, 152.4094
6600.000000, 102.596, 150.0586
6700.000000, 101.749, 148.3856
6800.000000, 100.866, 147.0011
6900.000000, 99.972, 147.0667
7000.000000, 99.247, 147.9653
7100.000000, 98.584, 148.7425
7200.000000, 97.882, 150.1446
7300.000000, 97.210, 152.8517
7400.000000, 96.678, 156.8988
7500.000000, 96.441, 162.0783
7620.000000, 96.696, 167.6357
7750.000000, 97.432, 170.4973
7880.000000, 98.223, 168.7796
8000.000000, 98.597, 163.0115
8120.000000, 98.298, 155.0478
8250.000000, 96.954, 147.9547
8380.000000, 94.915, 149.4101
8500.000000, 93.717, 158.9034
8620.000000, 93.596, 166.8087
8750.000000, 93.893, 172.4690
8850.000000, 94.389, 174.7364
9000.000000, 95.002, 172.9550
9120.000000, 95.042, 169.4997
9250.000000, 94.676, 166.4209
9380.000000, 94.134, 165.0848
9500.000000, 93.666, 164.9781
9620.000000, 93.282, 165.1848
9750.000000, 92.906, 165.1672
9880.000000, 92.473, 164.8144
10000.000000, 91.957, 164.8507
10150.000000, 91.224, 166.4309
10300.000000, 90.606, 169.7904
10440.000000, 90.245, 173.7538
10600.000000, 90.122, 178.2296
10750.000000, 90.230, -178.5622
10900.000000, 90.427, -176.7835
11060.000000, 90.608, -176.1268
11200.000000, 90.691, -176.0056
11380.000000, 90.768, -175.7571
11500.000000, 90.875, -175.6406
11720.000000, 91.199, -176.4629
11800.000000, 91.355, -177.1266
12060.000000, 92.068, 177.6584
12200.000000, 92.367, 171.6620
12410.000000, 92.173, 159.7523
12500.000000, 91.863, 154.4455
12650.000000, 91.160, 145.3622
12800.000000, 90.186, 135.1288
13150.000000, 85.140, 113.7901
13200.000000, 84.034, 113.7811
13400.000000, 79.754, 131.4067
13600.000000, 78.791, 152.4774
13800.000000, 79.162, 150.7379
14000.000000, 78.442, 141.9131
14300.000000, 76.287, 126.7006
14500.000000, 75.161, 110.1061
14750.000000, 74.758, 75.9362
15000.000000, 75.535, 36.9950
15250.000000, 76.911, 9.9764
15500.000000, 78.650, -5.0370
15750.000000, 80.496, -14.5299
16000.000000, 82.203, -21.3825
16250.000000, 84.209, -26.0177
16500.000000, 86.582, -34.6086
16750.000000, 88.068, -50.3094
17000.000000, 88.049, -66.8778
17250.000000, 87.002, -77.7913
17500.000000, 85.971, -81.8519
17750.000000, 85.503, -84.7686
18000.000000, 84.873, -90.3428
18250.000000, 83.324, -94.3627
18500.000000, 81.201, -86.2104
18750.000000, 81.041, -63.2112
19000.000000, 82.932, -53.6978
19250.000000, 84.147, -58.0646
19500.000000, 84.106, -63.7499
19750.000000, 83.623, -65.3177
20000.000000, 83.297, -65.8489
20300.000000, 82.745, -68.7525
20600.000000, 81.726, -72.1887
20900.000000, 80.315, -74.1508
21200.000000, 78.767, -74.1057
21400.000000, 77.787, -73.5869
21800.000000, 75.355, -75.3719
22000.000000, 73.226, -77.5643
22400.000000, 66.187, -83.3763
22700.000000, 58.841, -88.8090
23000.000000, 50.283, -96.4783
23300.000000, 41.066, -55.1998
23600.000000, 32.792, -38.7669
24000.000000, 28.495, 138.5461
