* Measurement data measured by REW V5.31.3
* Source: Headset (DS by VECLAN.COM), MICROPHONE (Master Volume), L, volume: 0.720. Timing signal peak level -15.0 dBFS, measurement signal peak level -14.9 dBFS
* Format: 2M Log Swept Sine, 1 sweep at -22.5 dBFS using an acoustic timing reference
* Dated: Oct 15, 2024 12:53:14 PM
* REW Settings:
*  C-weighting compensation: Off
*  Target level: 85.0 dB
* Note: ; Fosi DS1 Delay -0.0199 ms (-6.8 mm, -0.27 in) using estimated IR delay relative to Acoustic reference played from SPEAKER R with no timing offset Clock adjustment: -26.4 ppm
* Measurement: Sennheiser HD58x R5
* Smoothing: 1/24 octave
* Frequency Step: 1/48 octave
* Start Frequency: 1.000 Hz
*
* Freq(Hz), SPL(dB), Phase(degrees)
1.000000, 54.130, 9.1076
1.015000, 54.286, 8.9433
1.030000, 54.440, 8.7608
1.044000, 54.584, 8.5735
1.060000, 54.747, 8.3393
1.075000, 54.898, 8.1001
1.090000, 55.047, 7.8439
1.106000, 55.205, 7.5634
1.120000, 55.345, 7.3314
1.138000, 55.528, 7.0620
1.150000, 55.652, 6.8990
1.172000, 55.882, 6.6233
1.180000, 55.966, 6.5256
1.206000, 56.243, 6.2269
1.220000, 56.393, 6.0737
1.241000, 56.618, 5.8479
1.250000, 56.714, 5.7512
1.265000, 56.874, 5.5883
1.280000, 57.033, 5.4215
1.315000, 57.399, 5.0071
1.320000, 57.450, 4.9441
1.340000, 57.653, 4.6810
1.360000, 57.851, 4.3989
1.380000, 58.043, 4.0574
1.400000, 58.228, 3.6775
1.430000, 58.490, 3.0600
1.450000, 58.654, 2.6172
1.475000, 58.846, 2.0475
1.500000, 59.021, 1.5079
1.525000, 59.182, 1.0148
1.550000, 59.330, 0.5601
1.575000, 59.467, 0.1171
1.600000, 59.595, -0.3370
1.625000, 59.717, -0.7796
1.650000, 59.834, -1.2181
1.675000, 59.947, -1.6588
1.700000, 60.060, -2.1072
1.725000, 60.173, -2.5679
1.750000, 60.289, -3.0448
1.775000, 60.410, -3.5550
1.800000, 60.537, -4.1142
1.825000, 60.672, -4.6915
1.850000, 60.814, -5.2682
1.875000, 60.960, -5.8192
1.900000, 61.108, -6.3397
1.925000, 61.259, -6.8340
1.950000, 61.412, -7.3073
1.975000, 61.567, -7.7758
2.000000, 61.722, -8.2549
2.030000, 61.909, -8.8207
2.060000, 62.097, -9.3843
2.090000, 62.285, -9.9516
2.120000, 62.471, -10.5282
2.140000, 62.595, -10.9198
2.180000, 62.839, -11.7434
2.200000, 62.960, -12.1804
2.240000, 63.201, -13.0368
2.270000, 63.382, -13.6499
2.300000, 63.562, -14.2392
2.330000, 63.742, -14.8086
2.360000, 63.921, -15.3629
2.400000, 64.158, -16.1232
2.430000, 64.335, -16.6911
2.470000, 64.569, -17.4451
2.500000, 64.742, -18.0125
2.540000, 64.970, -18.7759
2.580000, 65.196, -19.5581
2.620000, 65.418, -20.3543
2.650000, 65.583, -20.9335
2.690000, 65.802, -21.6835
2.720000, 65.964, -22.2309
2.760000, 66.178, -22.9426
2.800000, 66.389, -23.6753
2.850000, 66.648, -24.5817
2.900000, 66.902, -25.4785
2.950000, 67.151, -26.3684
3.000000, 67.395, -27.2683
3.040000, 67.586, -27.9800
3.070000, 67.728, -28.5020
3.110000, 67.914, -29.1825
3.150000, 68.097, -29.8456
3.200000, 68.322, -30.6812
3.250000, 68.541, -31.5083
3.300000, 68.757, -32.3164
3.350000, 68.967, -33.1076
3.400000, 69.172, -33.9058
3.450000, 69.373, -34.6922
3.500000, 69.569, -35.4528
3.550000, 69.760, -36.1846
3.600000, 69.949, -36.9137
3.650000, 70.133, -37.6261
3.700000, 70.314, -38.3157
3.750000, 70.491, -38.9873
3.820000, 70.732, -39.9223
3.870000, 70.899, -40.5676
3.950000, 71.162, -41.5420
4.000000, 71.322, -42.1358
4.060000, 71.511, -42.8245
4.120000, 71.696, -43.4816
4.180000, 71.876, -44.1154
4.250000, 72.082, -44.8431
4.310000, 72.256, -45.4281
4.370000, 72.428, -45.9793
4.440000, 72.626, -46.6055
4.500000, 72.793, -47.1087
4.550000, 72.931, -47.5057
4.620000, 73.122, -48.0542
4.680000, 73.284, -48.5027
4.750000, 73.474, -48.9940
4.820000, 73.663, -49.4707
4.870000, 73.798, -49.7932
4.940000, 73.986, -50.2186
5.000000, 74.147, -50.5803
5.080000, 74.361, -51.0585
5.150000, 74.550, -51.4627
5.220000, 74.739, -51.8662
5.300000, 74.956, -52.3123
5.380000, 75.172, -52.7520
5.450000, 75.360, -53.1604
5.520000, 75.548, -53.5718
5.600000, 75.762, -54.0486
5.700000, 76.027, -54.6576
5.800000, 76.289, -55.2846
5.900000, 76.546, -55.9530
6.000000, 76.799, -56.6426
6.080000, 76.998, -57.2125
6.150000, 77.169, -57.7126
6.220000, 77.334, -58.2354
6.300000, 77.518, -58.8458
6.400000, 77.740, -59.6253
6.500000, 77.954, -60.4158
6.600000, 78.157, -61.1991
6.700000, 78.350, -61.9956
6.800000, 78.534, -62.7871
6.900000, 78.708, -63.5618
7.000000, 78.871, -64.2989
7.100000, 79.024, -65.0177
7.200000, 79.168, -65.7036
7.300000, 79.307, -66.3475
7.400000, 79.440, -66.9362
7.500000, 79.569, -67.4850
7.620000, 79.719, -68.0855
7.750000, 79.880, -68.6574
7.880000, 80.040, -69.1625
8.000000, 80.189, -69.5800
8.120000, 80.344, -69.9701
8.250000, 80.517, -70.3602
8.380000, 80.695, -70.7459
8.500000, 80.865, -71.1240
8.620000, 81.038, -71.5167
8.750000, 81.227, -71.9812
8.850000, 81.373, -72.3805
9.000000, 81.591, -73.0340
9.120000, 81.761, -73.6089
9.250000, 81.938, -74.2870
9.380000, 82.106, -75.0091
9.500000, 82.251, -75.7051
9.620000, 82.386, -76.4143
9.750000, 82.518, -77.1942
9.880000, 82.632, -77.9540
10.000000, 82.717, -78.6201
10.150000, 82.801, -79.4363
10.300000, 82.869, -80.1616
10.440000, 82.921, -80.7511
10.600000, 82.977, -81.3264
10.750000, 83.032, -81.7681
10.900000, 83.094, -82.1331
11.060000, 83.172, -82.4988
11.200000, 83.251, -82.8302
11.380000, 83.363, -83.2542
11.500000, 83.443, -83.5499
11.720000, 83.598, -84.1420
11.800000, 83.656, -84.3806
12.060000, 83.844, -85.2505
12.200000, 83.942, -85.7926
12.410000, 84.079, -86.6243
12.500000, 84.133, -86.9740
12.650000, 84.214, -87.5405
12.800000, 84.289, -88.0687
13.150000, 84.451, -89.1414
13.200000, 84.475, -89.2789
13.400000, 84.575, -89.7705
13.600000, 84.686, -90.1979
13.800000, 84.811, -90.5944
14.000000, 84.949, -91.0132
14.300000, 85.171, -91.8117
14.500000, 85.318, -92.4429
14.750000, 85.492, -93.3275
15.000000, 85.646, -94.2802
15.250000, 85.781, -95.2805
15.500000, 85.895, -96.2103
15.750000, 85.993, -97.0190
16.000000, 86.084, -97.6863
16.250000, 86.180, -98.2762
16.500000, 86.286, -98.7857
16.750000, 86.403, -99.2684
17.000000, 86.529, -99.7761
17.250000, 86.658, -100.3630
17.500000, 86.782, -100.9991
17.750000, 86.895, -101.6566
18.000000, 86.994, -102.3060
18.250000, 87.084, -102.9433
18.500000, 87.166, -103.5189
18.750000, 87.246, -104.0266
19.000000, 87.330, -104.4797
19.250000, 87.420, -104.9334
19.500000, 87.514, -105.3861
19.750000, 87.610, -105.8580
20.000000, 87.703, -106.3581
20.299999, 87.806, -107.0186
20.600000, 87.896, -107.6758
20.900000, 87.972, -108.2841
21.200001, 88.039, -108.8219
21.400000, 88.081, -109.1254
21.799999, 88.173, -109.5922
22.000000, 88.227, -109.7772
22.400000, 88.359, -110.1582
22.700001, 88.476, -110.5014
23.000000, 88.602, -110.9477
23.299999, 88.726, -111.5297
23.600000, 88.841, -112.2212
24.000000, 88.968, -113.2430
24.299999, 89.041, -114.0327
24.700001, 89.112, -114.9976
25.000000, 89.153, -115.6113
25.400000, 89.205, -116.2880
25.799999, 89.268, -116.8210
26.200001, 89.348, -117.3059
26.500000, 89.419, -117.6910
26.900000, 89.520, -118.2636
27.200001, 89.595, -118.7533
27.600000, 89.685, -119.4602
28.000000, 89.760, -120.1706
28.500000, 89.838, -120.9994
29.000000, 89.913, -121.6916
29.500000, 90.000, -122.3152
30.000000, 90.095, -122.9842
30.400000, 90.165, -123.6018
30.700001, 90.209, -124.0789
31.100000, 90.253, -124.6788
31.500000, 90.288, -125.1868
32.000000, 90.337, -125.6665
32.500000, 90.407, -126.0782
33.000000, 90.494, -126.5514
33.500000, 90.580, -127.1614
34.000000, 90.651, -127.8226
34.500000, 90.710, -128.4361
35.000000, 90.766, -128.9688
35.500000, 90.828, -129.4704
36.000000, 90.895, -129.9839
36.500000, 90.960, -130.5284
37.000000, 91.020, -131.0760
37.500000, 91.076, -131.6172
38.200001, 91.151, -132.3531
38.700001, 91.201, -132.8750
39.500000, 91.273, -133.6573
40.000000, 91.318, -134.0937
40.599998, 91.378, -134.6264
41.200001, 91.437, -135.1874
41.799999, 91.488, -135.7577
42.500000, 91.543, -136.3795
43.099998, 91.593, -136.8923
43.700001, 91.643, -137.4110
44.400002, 91.694, -138.0062
45.000000, 91.740, -138.4736
45.500000, 91.786, -138.8647
46.200001, 91.849, -139.5107
46.799999, 91.886, -140.1025
47.500000, 91.918, -140.6703
48.200001, 91.962, -141.1570
48.700001, 91.998, -141.5356
49.400002, 92.041, -142.1037
50.000000, 92.069, -142.5530
50.799999, 92.108, -143.0871
51.500000, 92.147, -143.5799
52.200001, 92.183, -144.1031
53.000000, 92.219, -144.6907
53.799999, 92.249, -145.3124
54.500000, 92.270, -145.8461
55.200001, 92.290, -146.3540
56.000000, 92.315, -146.9255
57.000000, 92.341, -147.6252
58.000000, 92.362, -148.2475
59.000000, 92.399, -148.8471
60.000000, 92.405, -149.5571
60.799999, 92.379, -149.9515
61.500000, 92.372, -150.0905
62.200001, 92.383, -150.2550
63.000000, 92.392, -150.5370
64.000000, 92.398, -150.7520
65.000000, 92.432, -151.0539
66.000000, 92.470, -151.5110
67.000000, 92.506, -151.9015
68.000000, 92.562, -152.3425
69.000000, 92.620, -152.8916
70.000000, 92.671, -153.4319
71.000000, 92.715, -154.0564
72.000000, 92.729, -154.6572
73.000000, 92.736, -155.0436
74.000000, 92.758, -155.4550
75.000000, 92.772, -155.9570
76.199997, 92.782, -156.5836
77.500000, 92.783, -157.2907
78.800003, 92.779, -157.9864
80.000000, 92.767, -158.6875
81.199997, 92.740, -159.3570
82.500000, 92.695, -159.9785
83.800003, 92.644, -160.4489
85.000000, 92.598, -160.8223
86.199997, 92.553, -161.1929
87.500000, 92.499, -161.6312
88.500000, 92.435, -161.9729
90.000000, 92.320, -162.2021
91.199997, 92.239, -162.1032
92.500000, 92.189, -161.7003
93.800003, 92.181, -161.2508
95.000000, 92.200, -160.9462
96.199997, 92.227, -160.7929
97.500000, 92.243, -160.7240
98.800003, 92.257, -160.6381
100.000000, 92.291, -160.5756
101.500000, 92.358, -160.6753
103.000000, 92.428, -160.9689
104.400002, 92.469, -161.4186
106.000000, 92.466, -162.0549
107.500000, 92.412, -162.6200
109.000000, 92.327, -162.9434
110.599998, 92.233, -162.8974
112.000000, 92.183, -162.3592
113.800003, 92.204, -161.3267
115.000000, 92.262, -160.7853
117.199997, 92.391, -160.5480
118.000000, 92.433, -160.6627
120.599998, 92.581, -161.4756
122.000000, 92.629, -162.1191
124.099998, 92.668, -162.3695
125.000000, 92.700, -162.3769
126.500000, 92.745, -162.4419
128.000000, 92.773, -162.6271
131.500000, 92.813, -163.4181
132.000000, 92.816, -163.5335
134.000000, 92.826, -163.8917
136.000000, 92.842, -164.1864
138.000000, 92.852, -164.5320
140.000000, 92.851, -164.8826
143.000000, 92.836, -165.3121
145.000000, 92.828, -165.5300
147.500000, 92.829, -165.7721
150.000000, 92.839, -166.0591
152.500000, 92.839, -166.3070
155.000000, 92.832, -166.4777
157.500000, 92.826, -166.6184
160.000000, 92.823, -166.8296
162.500000, 92.818, -167.0456
165.000000, 92.811, -167.1518
167.500000, 92.809, -167.1801
170.000000, 92.815, -167.1754
172.500000, 92.816, -167.2277
175.000000, 92.813, -167.2821
177.500000, 92.815, -167.3404
180.000000, 92.825, -167.4524
182.500000, 92.845, -167.5289
185.000000, 92.862, -167.7055
187.500000, 92.866, -167.8458
190.000000, 92.867, -168.0095
192.500000, 92.867, -168.1970
195.000000, 92.861, -168.3168
197.500000, 92.852, -168.4324
200.000000, 92.852, -168.5359
203.000000, 92.855, -168.7054
206.000000, 92.849, -168.8780
209.000000, 92.842, -169.0469
212.000000, 92.838, -169.1955
214.000000, 92.836, -169.2601
218.000000, 92.826, -169.4309
220.000000, 92.820, -169.5271
224.000000, 92.807, -169.6199
227.000000, 92.794, -169.6570
230.000000, 92.781, -169.6721
233.000000, 92.766, -169.6962
236.000000, 92.751, -169.7418
240.000000, 92.745, -169.8382
243.000000, 92.741, -169.8485
247.000000, 92.733, -169.8098
250.000000, 92.725, -169.8498
254.000000, 92.712, -169.9244
258.000000, 92.700, -169.9607
262.000000, 92.689, -169.9663
265.000000, 92.680, -169.9549
269.000000, 92.663, -169.9771
272.000000, 92.651, -169.9774
276.000000, 92.638, -169.9160
280.000000, 92.628, -169.8071
285.000000, 92.615, -169.7045
290.000000, 92.612, -169.5993
295.000000, 92.607, -169.4814
300.000000, 92.600, -169.4302
304.000000, 92.599, -169.4544
307.000000, 92.599, -169.4077
311.000000, 92.601, -169.3128
315.000000, 92.600, -169.2487
320.000000, 92.597, -169.1788
325.000000, 92.587, -169.0847
330.000000, 92.567, -169.0204
335.000000, 92.543, -168.8914
340.000000, 92.527, -168.6003
345.000000, 92.524, -168.1968
350.000000, 92.538, -167.8309
355.000000, 92.569, -167.6110
360.000000, 92.607, -167.4621
365.000000, 92.642, -167.3045
370.000000, 92.657, -167.2849
375.000000, 92.664, -167.2880
382.000000, 92.663, -167.1832
387.000000, 92.652, -167.0443
395.000000, 92.658, -166.8267
400.000000, 92.667, -166.6239
406.000000, 92.669, -166.4660
412.000000, 92.666, -166.3778
418.000000, 92.669, -166.2220
425.000000, 92.677, -166.0353
431.000000, 92.684, -165.8604
437.000000, 92.696, -165.6719
444.000000, 92.708, -165.4933
450.000000, 92.715, -165.3699
455.000000, 92.727, -165.2065
462.000000, 92.743, -165.0258
468.000000, 92.745, -164.9298
475.000000, 92.749, -164.7321
482.000000, 92.754, -164.4913
487.000000, 92.759, -164.3715
494.000000, 92.769, -164.1590
500.000000, 92.787, -163.9475
508.000000, 92.810, -163.7314
515.000000, 92.820, -163.5417
522.000000, 92.838, -163.3560
530.000000, 92.859, -163.0974
538.000000, 92.881, -162.8486
545.000000, 92.901, -162.6074
552.000000, 92.923, -162.3714
560.000000, 92.950, -162.1730
570.000000, 92.986, -161.9571
580.000000, 93.024, -161.6695
590.000000, 93.071, -161.3800
600.000000, 93.119, -161.1569
608.000000, 93.153, -160.9931
615.000000, 93.182, -160.8679
622.000000, 93.213, -160.7846
630.000000, 93.249, -160.7535
640.000000, 93.293, -160.7283
650.000000, 93.322, -160.7219
660.000000, 93.329, -160.7884
670.000000, 93.340, -160.8474
680.000000, 93.351, -160.9139
690.000000, 93.343, -160.9967
700.000000, 93.317, -161.0710
710.000000, 93.280, -161.0974
720.000000, 93.232, -161.0120
730.000000, 93.175, -160.7675
740.000000, 93.112, -160.4579
750.000000, 93.042, -159.9682
762.000000, 92.973, -159.0179
775.000000, 92.963, -157.7817
788.000000, 93.017, -156.6584
800.000000, 93.099, -155.8358
812.000000, 93.188, -155.2044
825.000000, 93.275, -154.7574
838.000000, 93.350, -154.3727
850.000000, 93.413, -154.0060
862.000000, 93.469, -153.6707
875.000000, 93.528, -153.4494
885.000000, 93.573, -153.2823
900.000000, 93.643, -152.9978
912.000000, 93.687, -152.8128
925.000000, 93.733, -152.5917
938.000000, 93.781, -152.3010
950.000000, 93.828, -151.9823
962.000000, 93.877, -151.6582
975.000000, 93.933, -151.3627
988.000000, 93.985, -151.2077
1000.000000, 94.026, -151.0371
1015.000000, 94.082, -150.8709
1030.000000, 94.114, -150.7930
1044.000000, 94.137, -150.6472
1060.000000, 94.151, -150.4670
1075.000000, 94.163, -149.9444
1090.000000, 94.227, -149.3362
1106.000000, 94.337, -148.8922
1120.000000, 94.446, -148.6079
1138.000000, 94.581, -148.6149
1150.000000, 94.657, -148.7587
1172.000000, 94.779, -148.8745
1180.000000, 94.817, -148.9827
1206.000000, 94.898, -149.3203
1220.000000, 94.915, -149.3394
1241.000000, 94.963, -149.3288
1250.000000, 94.991, -149.3024
1265.000000, 95.044, -149.2674
1280.000000, 95.089, -149.3684
1315.000000, 95.166, -149.4686
1320.000000, 95.168, -149.4802
1340.000000, 95.180, -149.4093
1360.000000, 95.189, -149.6024
1380.000000, 95.161, -149.9926
1400.000000, 95.073, -150.1815
1430.000000, 94.975, -148.6230
1450.000000, 95.054, -147.8192
1475.000000, 95.117, -147.6062
1500.000000, 95.146, -147.0291
1525.000000, 95.207, -146.4834
1550.000000, 95.221, -146.1233
1575.000000, 95.210, -145.2596
1600.000000, 95.324, -144.0970
1625.000000, 95.500, -143.9030
1650.000000, 95.545, -144.4447
1675.000000, 95.512, -144.2520
1700.000000, 95.521, -143.5172
1725.000000, 95.574, -142.7662
1750.000000, 95.673, -142.0443
1775.000000, 95.804, -141.8147
1800.000000, 95.862, -142.2736
1825.000000, 95.790, -142.4075
1850.000000, 95.757, -141.4843
1875.000000, 95.850, -140.8733
1900.000000, 95.877, -140.8683
1925.000000, 95.866, -140.4022
1950.000000, 95.880, -139.7713
1975.000000, 95.899, -139.2939
2000.000000, 95.910, -138.8779
2030.000000, 95.876, -138.2936
2060.000000, 95.822, -137.1161
2090.000000, 95.845, -135.4241
2120.000000, 95.950, -133.5213
2140.000000, 96.100, -132.3290
2180.000000, 96.415, -131.4469
2200.000000, 96.502, -131.1392
2240.000000, 96.687, -129.8309
2270.000000, 96.887, -128.8727
2300.000000, 97.131, -128.0377
2330.000000, 97.391, -127.7705
2360.000000, 97.586, -127.6967
2400.000000, 97.844, -127.0924
2430.000000, 98.111, -126.7306
2470.000000, 98.485, -127.1399
2500.000000, 98.741, -127.7363
2540.000000, 99.051, -128.8640
2580.000000, 99.293, -130.4179
2620.000000, 99.392, -132.3347
2650.000000, 99.381, -133.0700
2690.000000, 99.446, -133.2538
2720.000000, 99.578, -133.5540
2760.000000, 99.760, -134.6685
2800.000000, 99.861, -136.2805
2850.000000, 99.818, -137.9844
2900.000000, 99.763, -138.5542
2950.000000, 99.831, -138.6624
3000.000000, 99.978, -139.6099
3040.000000, 100.037, -140.5842
3070.000000, 100.080, -141.2558
3110.000000, 100.144, -142.3102
3150.000000, 100.184, -143.6704
3200.000000, 100.153, -145.3931
3250.000000, 100.096, -146.7571
3300.000000, 100.066, -148.1568
3350.000000, 99.989, -149.9061
3400.000000, 99.848, -151.3721
3450.000000, 99.726, -152.7865
3500.000000, 99.591, -154.5258
3550.000000, 99.353, -156.4845
3600.000000, 99.021, -157.8624
3650.000000, 98.682, -158.7589
3700.000000, 98.353, -159.3791
3750.000000, 98.025, -159.9074
3820.000000, 97.509, -160.5334
3870.000000, 97.099, -160.5968
3950.000000, 96.437, -160.2734
4000.000000, 95.957, -159.9470
4060.000000, 95.335, -158.5440
4120.000000, 94.759, -156.6818
4180.000000, 94.099, -154.5588
4250.000000, 93.251, -149.6935
4310.000000, 92.695, -143.6000
4370.000000, 92.407, -136.3172
4440.000000, 92.551, -127.7375
4500.000000, 92.891, -122.4051
4550.000000, 93.175, -118.4120
4620.000000, 93.749, -112.9754
4680.000000, 94.382, -109.6392
4750.000000, 95.123, -107.0291
4820.000000, 95.919, -105.5099
4870.000000, 96.460, -105.6722
4940.000000, 97.008, -106.9176
5000.000000, 97.351, -107.8890
5080.000000, 97.735, -109.3066
5150.000000, 97.965, -110.7672
5220.000000, 98.050, -112.0162
5300.000000, 98.091, -111.9889
5380.000000, 98.297, -111.2643
5450.000000, 98.569, -110.7999
5520.000000, 98.942, -110.4478
5600.000000, 99.499, -110.8613
5700.000000, 100.285, -113.1600
5800.000000, 101.039, -117.9484
5900.000000, 101.549, -125.2056
6000.000000, 101.619, -134.0923
6080.000000, 101.291, -141.2460
6150.000000, 100.757, -146.8214
6220.000000, 100.044, -151.3617
6300.000000, 99.105, -155.0054
6400.000000, 97.884, -157.4564
6500.000000, 96.715, -157.9655
6600.000000, 95.669, -157.2056
6700.000000, 94.737, -155.8605
6800.000000, 93.868, -154.1220
6900.000000, 93.031, -151.9845
7000.000000, 92.225, -149.0647
7100.000000, 91.497, -145.1699
7200.000000, 90.899, -140.4870
7300.000000, 90.454, -135.4866
7400.000000, 90.137, -130.4563
7500.000000, 89.935, -125.4559
7620.000000, 89.847, -119.6702
7750.000000, 89.928, -113.7614
7880.000000, 90.104, -108.4358
8000.000000, 90.347, -104.4013
8120.000000, 90.655, -101.3112
8250.000000, 91.013, -99.2594
8380.000000, 91.310, -98.4577
8500.000000, 91.500, -98.4346
8620.000000, 91.603, -98.9897
8750.000000, 91.596, -100.1251
8850.000000, 91.501, -101.3337
9000.000000, 91.175, -103.5313
9120.000000, 90.741, -105.3257
9250.000000, 90.084, -107.0389
9380.000000, 89.214, -108.0569
9500.000000, 88.242, -107.8161
9620.000000, 87.175, -105.9993
9750.000000, 86.018, -102.1047
9880.000000, 84.977, -96.3124
10000.000000, 84.196, -89.8880
10150.000000, 83.438, -81.2221
10300.000000, 82.869, -71.8579
10440.000000, 82.534, -62.1785
10600.000000, 82.529, -50.1935
10750.000000, 82.977, -39.4338
10900.000000, 83.772, -30.3904
11060.000000, 84.880, -22.9273
11200.000000, 86.042, -18.4149
11380.000000, 87.712, -16.5142
11500.000000, 88.770, -18.3610
11720.000000, 89.978, -27.6906
11800.000000, 90.051, -32.0310
12060.000000, 89.018, -43.3358
12200.000000, 88.015, -45.8132
12410.000000, 86.472, -45.1054
12500.000000, 85.871, -43.6565
12650.000000, 84.976, -40.2500
12800.000000, 84.210, -35.8880
13150.000000, 83.123, -21.9790
13200.000000, 83.107, -19.8354
13400.000000, 83.402, -13.2598
13600.000000, 83.768, -11.2170
13800.000000, 83.774, -11.3898
14000.000000, 83.476, -11.3307
14300.000000, 82.928, -9.6883
14500.000000, 82.737, -8.8269
14750.000000, 82.756, -10.6743
15000.000000, 82.903, -19.0710
15250.000000, 82.805, -37.8822
15500.000000, 82.140, -71.3063
15750.000000, 81.315, -122.9983
16000.000000, 81.308, -175.2933
16250.000000, 82.016, 152.3215
16500.000000, 82.736, 134.2128
16750.000000, 83.255, 124.0776
17000.000000, 83.771, 118.5747
17250.000000, 84.441, 113.8871
17500.000000, 84.859, 106.7984
17750.000000, 84.416, 98.6308
18000.000000, 82.994, 93.8036
18250.000000, 80.988, 96.1572
18500.000000, 79.133, 107.7555
18750.000000, 78.348, 125.9621
19000.000000, 78.863, 143.9190
19250.000000, 80.237, 157.6122
19500.000000, 81.937, 165.3373
19750.000000, 83.464, 167.4120
20000.000000, 84.494, 165.8114
20300.000000, 85.063, 161.5154
20600.000000, 84.958, 156.8721
20900.000000, 84.242, 154.1881
21200.000000, 83.184, 155.0531
21400.000000, 82.465, 157.6238
21800.000000, 81.266, 165.9371
22000.000000, 80.813, 171.2170
22400.000000, 80.271, -177.0791
22700.000000, 80.110, -168.1786
23000.000000, 80.245, -159.0597
23300.000000, 80.550, -152.2503
23600.000000, 80.342, -149.3387
24000.000000, 79.422, -139.6233
