* Measurement data measured by REW V5.31.3
* Source: Headset (DS by VECLAN.COM), MICROPHONE (Master Volume), L, volume: 0.720. Timing signal peak level -12.1 dBFS, measurement signal peak level -12.1 dBFS
* Format: 2M Log Swept Sine, 1 sweep at -12.0 dBFS using an acoustic timing reference
* Dated: Sep 1, 2024 1:20:15 PM
* REW Settings:
*  C-weighting compensation: Off
*  Target level: 85.0 dB
* Note: ; Delay 0.1314 ms (45 mm, 1.77 in) using estimated IR delay relative to Acoustic reference played from HEADPHONE L with no timing offset Clock adjustment: -23.3 ppm
* Measurement: Sennheiser HD58x L3
* Smoothing: 1/24 octave
* Frequency Step: 1/48 octave
* Start Frequency: 1.000 Hz
*
* Freq(Hz), SPL(dB), Phase(degrees)
1.000000, 61.598, -39.8519
1.015000, 61.798, -39.4959
1.030000, 61.998, -39.1476
1.044000, 62.185, -38.8298
1.060000, 62.398, -38.4756
1.075000, 62.599, -38.1525
1.090000, 62.800, -37.8370
1.106000, 63.017, -37.5003
1.120000, 63.209, -37.1916
1.138000, 63.461, -36.7695
1.150000, 63.632, -36.4748
1.172000, 63.950, -35.9210
1.180000, 64.067, -35.7218
1.206000, 64.449, -35.0661
1.220000, 64.656, -34.7121
1.241000, 64.965, -34.1864
1.250000, 65.097, -33.9645
1.265000, 65.315, -33.6009
1.280000, 65.532, -33.2469
1.315000, 66.024, -32.4682
1.320000, 66.093, -32.3632
1.340000, 66.362, -31.9607
1.360000, 66.622, -31.5871
1.380000, 66.870, -31.2836
1.400000, 67.105, -31.0284
1.430000, 67.431, -30.7112
1.450000, 67.628, -30.5432
1.475000, 67.848, -30.3648
1.500000, 68.040, -30.1787
1.525000, 68.204, -29.9710
1.550000, 68.346, -29.7496
1.575000, 68.467, -29.5451
1.600000, 68.572, -29.3829
1.625000, 68.663, -29.2312
1.650000, 68.743, -29.0959
1.675000, 68.817, -28.9824
1.700000, 68.887, -28.8950
1.725000, 68.957, -28.8374
1.750000, 69.030, -28.8127
1.775000, 69.109, -28.8402
1.800000, 69.198, -28.9378
1.825000, 69.298, -29.0690
1.850000, 69.408, -29.2178
1.875000, 69.522, -29.3618
1.900000, 69.638, -29.4960
1.925000, 69.756, -29.6232
1.950000, 69.874, -29.7467
1.975000, 69.994, -29.8868
2.000000, 70.114, -30.0631
2.030000, 70.258, -30.2818
2.060000, 70.402, -30.5150
2.090000, 70.546, -30.7669
2.120000, 70.688, -31.0415
2.140000, 70.782, -31.2388
2.180000, 70.968, -31.6911
2.200000, 71.059, -31.9528
2.240000, 71.241, -32.4843
2.270000, 71.376, -32.8781
2.300000, 71.511, -33.2661
2.330000, 71.645, -33.6497
2.360000, 71.778, -34.0309
2.400000, 71.954, -34.5862
2.430000, 72.085, -35.0111
2.470000, 72.257, -35.5837
2.500000, 72.384, -36.0205
2.540000, 72.551, -36.6158
2.580000, 72.716, -37.2436
2.620000, 72.878, -37.9127
2.650000, 72.998, -38.4107
2.690000, 73.156, -39.0681
2.720000, 73.273, -39.5551
2.760000, 73.427, -40.1946
2.800000, 73.578, -40.8646
2.850000, 73.763, -41.6969
2.900000, 73.944, -42.5195
2.950000, 74.121, -43.3372
3.000000, 74.293, -44.1836
3.040000, 74.427, -44.8662
3.070000, 74.525, -45.3722
3.110000, 74.655, -46.0363
3.150000, 74.782, -46.6866
3.200000, 74.938, -47.5086
3.250000, 75.090, -48.3201
3.300000, 75.240, -49.1085
3.350000, 75.386, -49.8806
3.400000, 75.529, -50.6739
3.450000, 75.668, -51.4646
3.500000, 75.804, -52.2334
3.550000, 75.937, -52.9756
3.600000, 76.068, -53.7149
3.650000, 76.197, -54.4356
3.700000, 76.324, -55.1316
3.750000, 76.447, -55.8097
3.820000, 76.615, -56.7644
3.870000, 76.733, -57.4288
3.950000, 76.919, -58.4404
4.000000, 77.034, -59.0594
4.060000, 77.171, -59.7793
4.120000, 77.306, -60.4682
4.180000, 77.439, -61.1366
4.250000, 77.594, -61.9158
4.310000, 77.725, -62.5531
4.370000, 77.856, -63.1668
4.440000, 78.009, -63.8815
4.500000, 78.138, -64.4668
4.550000, 78.246, -64.9362
4.620000, 78.397, -65.5978
4.680000, 78.526, -66.1530
4.750000, 78.677, -66.7808
4.820000, 78.828, -67.4089
4.870000, 78.937, -67.8470
4.940000, 79.089, -68.4415
5.000000, 79.220, -68.9540
5.080000, 79.393, -69.6391
5.150000, 79.544, -70.2303
5.220000, 79.695, -70.8324
5.300000, 79.866, -71.5141
5.380000, 80.037, -72.1884
5.450000, 80.185, -72.7943
5.520000, 80.331, -73.3970
5.600000, 80.497, -74.0921
5.700000, 80.701, -74.9699
5.800000, 80.902, -75.8463
5.900000, 81.097, -76.7376
6.000000, 81.286, -77.6340
6.080000, 81.434, -78.3614
6.150000, 81.561, -78.9872
6.220000, 81.684, -79.6199
6.300000, 81.821, -80.3393
6.400000, 81.987, -81.2371
6.500000, 82.146, -82.1322
6.600000, 82.299, -83.0051
6.700000, 82.445, -83.8717
6.800000, 82.584, -84.7229
6.900000, 82.718, -85.5566
7.000000, 82.846, -86.3581
7.100000, 82.969, -87.1419
7.200000, 83.087, -87.8999
7.300000, 83.201, -88.6319
7.400000, 83.310, -89.3304
7.500000, 83.416, -90.0096
7.620000, 83.538, -90.7840
7.750000, 83.666, -91.5697
7.880000, 83.790, -92.3121
8.000000, 83.903, -92.9536
8.120000, 84.014, -93.5611
8.250000, 84.134, -94.1822
8.380000, 84.252, -94.7689
8.500000, 84.362, -95.2899
8.620000, 84.472, -95.7877
8.750000, 84.590, -96.3099
8.850000, 84.682, -96.7039
9.000000, 84.819, -97.2783
9.120000, 84.928, -97.7339
9.250000, 85.046, -98.2290
9.380000, 85.162, -98.7208
9.500000, 85.267, -99.1775
9.620000, 85.371, -99.6311
9.750000, 85.480, -100.1209
9.880000, 85.579, -100.6105
10.000000, 85.659, -101.0525
10.150000, 85.744, -101.6294
10.300000, 85.819, -102.1797
10.440000, 85.880, -102.6685
10.600000, 85.946, -103.1966
10.750000, 86.006, -103.6602
10.900000, 86.067, -104.0965
11.060000, 86.134, -104.5619
11.200000, 86.194, -104.9879
11.380000, 86.272, -105.5165
11.500000, 86.322, -105.8598
11.720000, 86.415, -106.4765
11.800000, 86.449, -106.6986
12.060000, 86.561, -107.4361
12.200000, 86.622, -107.8696
12.410000, 86.710, -108.5057
12.500000, 86.746, -108.7700
12.650000, 86.803, -109.1976
12.800000, 86.856, -109.6047
13.150000, 86.974, -110.5122
13.200000, 86.991, -110.6406
13.400000, 87.060, -111.1266
13.600000, 87.131, -111.5755
13.800000, 87.206, -111.9959
14.000000, 87.283, -112.4064
14.300000, 87.403, -113.0950
14.500000, 87.483, -113.5614
14.750000, 87.578, -114.1484
15.000000, 87.671, -114.7352
15.250000, 87.763, -115.3614
15.500000, 87.851, -115.9593
15.750000, 87.934, -116.5178
16.000000, 88.015, -117.0371
16.250000, 88.096, -117.5681
16.500000, 88.177, -118.0734
16.750000, 88.258, -118.5591
17.000000, 88.340, -119.0319
17.250000, 88.422, -119.5192
17.500000, 88.504, -119.9916
17.750000, 88.584, -120.4451
18.000000, 88.665, -120.8860
18.250000, 88.747, -121.3428
18.500000, 88.830, -121.8052
18.750000, 88.913, -122.2795
19.000000, 88.994, -122.7708
19.250000, 89.072, -123.3018
19.500000, 89.145, -123.8370
19.750000, 89.210, -124.3620
20.000000, 89.268, -124.8612
20.299999, 89.332, -125.4405
20.600000, 89.393, -125.9581
20.900000, 89.455, -126.4214
21.200001, 89.520, -126.8690
21.400000, 89.565, -127.1664
21.799999, 89.658, -127.7675
22.000000, 89.704, -128.0790
22.400000, 89.791, -128.7530
22.700001, 89.851, -129.2610
23.000000, 89.904, -129.7560
23.299999, 89.954, -130.2438
23.600000, 90.000, -130.6984
24.000000, 90.064, -131.2531
24.299999, 90.113, -131.6604
24.700001, 90.183, -132.1913
25.000000, 90.237, -132.5916
25.400000, 90.308, -133.1580
25.799999, 90.376, -133.7311
26.200001, 90.440, -134.3122
26.500000, 90.487, -134.7539
26.900000, 90.546, -135.3469
27.200001, 90.588, -135.8058
27.600000, 90.637, -136.4273
28.000000, 90.673, -137.0268
28.500000, 90.703, -137.6897
29.000000, 90.727, -138.1725
29.500000, 90.767, -138.5019
30.000000, 90.834, -138.7792
30.400000, 90.905, -139.0724
30.700001, 90.961, -139.3572
31.100000, 91.031, -139.8253
31.500000, 91.090, -140.3634
32.000000, 91.142, -141.0167
32.500000, 91.183, -141.5829
33.000000, 91.228, -142.0542
33.500000, 91.285, -142.5238
34.000000, 91.346, -143.0489
34.500000, 91.402, -143.6409
35.000000, 91.446, -144.2497
35.500000, 91.481, -144.8487
36.000000, 91.508, -145.4258
36.500000, 91.528, -145.9834
37.000000, 91.540, -146.5021
37.500000, 91.546, -146.9734
38.200001, 91.553, -147.5450
38.700001, 91.558, -147.9023
39.500000, 91.574, -148.3886
40.000000, 91.594, -148.6706
40.599998, 91.625, -149.0559
41.200001, 91.655, -149.4837
41.799999, 91.681, -149.9141
42.500000, 91.716, -150.4463
43.099998, 91.737, -150.9728
43.700001, 91.733, -151.4668
44.400002, 91.713, -151.7723
45.000000, 91.722, -151.8198
45.500000, 91.757, -151.8710
46.200001, 91.823, -152.1367
46.799999, 91.870, -152.5078
47.500000, 91.908, -152.9648
48.200001, 91.934, -153.3564
48.700001, 91.955, -153.5777
49.400002, 91.999, -153.8579
50.000000, 92.050, -154.1781
50.799999, 92.114, -154.7981
51.500000, 92.149, -155.4147
52.200001, 92.175, -156.0293
53.000000, 92.196, -156.7759
53.799999, 92.199, -157.5965
54.500000, 92.179, -158.3340
55.200001, 92.133, -159.0255
56.000000, 92.056, -159.6460
57.000000, 91.949, -160.0782
58.000000, 91.860, -160.1888
59.000000, 91.799, -160.2529
60.000000, 91.707, -160.2942
60.799999, 91.612, -159.8853
61.500000, 91.568, -159.1587
62.200001, 91.584, -158.3570
63.000000, 91.655, -157.5952
64.000000, 91.789, -156.9939
65.000000, 91.942, -156.8300
66.000000, 92.082, -157.0192
67.000000, 92.197, -157.4133
68.000000, 92.291, -157.8881
69.000000, 92.371, -158.4099
70.000000, 92.436, -158.9692
71.000000, 92.487, -159.5480
72.000000, 92.522, -160.1191
73.000000, 92.545, -160.6291
74.000000, 92.563, -161.0830
75.000000, 92.582, -161.4915
76.199997, 92.612, -162.0132
77.500000, 92.636, -162.6921
78.800003, 92.635, -163.3937
80.000000, 92.607, -163.9517
81.199997, 92.570, -164.2573
82.500000, 92.553, -164.3672
83.800003, 92.576, -164.4509
85.000000, 92.616, -164.7106
86.199997, 92.650, -165.1220
87.500000, 92.670, -165.6414
88.500000, 92.674, -166.0306
90.000000, 92.669, -166.5684
91.199997, 92.657, -166.9852
92.500000, 92.625, -167.4256
93.800003, 92.574, -167.7190
95.000000, 92.524, -167.8386
96.199997, 92.479, -167.8073
97.500000, 92.453, -167.6081
98.800003, 92.463, -167.3529
100.000000, 92.501, -167.1919
101.500000, 92.566, -167.1987
103.000000, 92.627, -167.4108
104.400002, 92.670, -167.7385
106.000000, 92.701, -168.1855
107.500000, 92.711, -168.6139
109.000000, 92.707, -168.9567
110.599998, 92.706, -169.1893
112.000000, 92.713, -169.3326
113.800003, 92.737, -169.5251
115.000000, 92.757, -169.7067
117.199997, 92.790, -170.1332
118.000000, 92.798, -170.3121
120.599998, 92.810, -170.8726
122.000000, 92.809, -171.1535
124.099998, 92.812, -171.5534
125.000000, 92.814, -171.7583
126.500000, 92.819, -172.1061
128.000000, 92.824, -172.4647
131.500000, 92.826, -173.2093
132.000000, 92.825, -173.3086
134.000000, 92.813, -173.7108
136.000000, 92.793, -174.1207
138.000000, 92.766, -174.5358
140.000000, 92.729, -174.8872
143.000000, 92.659, -175.1613
145.000000, 92.618, -175.1477
147.500000, 92.593, -175.0204
150.000000, 92.602, -174.9124
152.500000, 92.631, -174.9637
155.000000, 92.654, -175.1830
157.500000, 92.668, -175.4306
160.000000, 92.678, -175.6837
162.500000, 92.682, -175.9621
165.000000, 92.672, -176.2391
167.500000, 92.654, -176.4617
170.000000, 92.637, -176.6171
172.500000, 92.624, -176.7399
175.000000, 92.615, -176.8520
177.500000, 92.606, -176.9710
180.000000, 92.603, -177.0824
182.500000, 92.607, -177.2513
185.000000, 92.606, -177.4354
187.500000, 92.598, -177.6094
190.000000, 92.587, -177.7981
192.500000, 92.575, -177.9819
195.000000, 92.567, -178.1455
197.500000, 92.561, -178.2948
200.000000, 92.556, -178.4674
203.000000, 92.546, -178.6925
206.000000, 92.522, -178.9060
209.000000, 92.489, -179.0510
212.000000, 92.459, -179.0965
214.000000, 92.448, -179.0745
218.000000, 92.445, -179.1004
220.000000, 92.446, -179.1383
224.000000, 92.446, -179.2365
227.000000, 92.445, -179.3206
230.000000, 92.446, -179.4125
233.000000, 92.449, -179.5099
236.000000, 92.448, -179.5980
240.000000, 92.444, -179.7515
243.000000, 92.443, -179.8930
247.000000, 92.439, 179.9010
250.000000, 92.433, 179.7547
254.000000, 92.425, 179.5985
258.000000, 92.419, 179.4516
262.000000, 92.410, 179.2761
265.000000, 92.398, 179.1226
269.000000, 92.371, 178.9139
272.000000, 92.342, 178.8044
276.000000, 92.298, 178.8182
280.000000, 92.269, 179.0761
285.000000, 92.285, 179.4294
290.000000, 92.342, 179.4966
295.000000, 92.386, 179.3228
300.000000, 92.408, 179.0526
304.000000, 92.420, 178.8700
307.000000, 92.425, 178.7499
311.000000, 92.428, 178.5947
315.000000, 92.431, 178.4581
320.000000, 92.432, 178.3124
325.000000, 92.432, 178.1808
330.000000, 92.432, 178.0696
335.000000, 92.433, 177.9775
340.000000, 92.434, 177.8770
345.000000, 92.433, 177.7802
350.000000, 92.433, 177.7191
355.000000, 92.435, 177.6508
360.000000, 92.442, 177.5940
365.000000, 92.454, 177.5221
370.000000, 92.468, 177.4012
375.000000, 92.479, 177.2647
382.000000, 92.489, 177.0546
387.000000, 92.490, 176.9181
395.000000, 92.489, 176.7120
400.000000, 92.487, 176.5870
406.000000, 92.487, 176.4598
412.000000, 92.490, 176.3320
418.000000, 92.495, 176.2067
425.000000, 92.499, 176.0465
431.000000, 92.505, 175.9017
437.000000, 92.509, 175.7085
444.000000, 92.506, 175.5078
450.000000, 92.504, 175.3685
455.000000, 92.504, 175.2474
462.000000, 92.499, 175.0314
468.000000, 92.490, 174.8781
475.000000, 92.478, 174.7396
482.000000, 92.467, 174.6201
487.000000, 92.459, 174.5648
494.000000, 92.453, 174.5508
500.000000, 92.454, 174.5831
508.000000, 92.469, 174.6188
515.000000, 92.492, 174.5806
522.000000, 92.519, 174.5158
530.000000, 92.548, 174.3845
538.000000, 92.574, 174.2147
545.000000, 92.597, 174.0728
552.000000, 92.626, 173.9184
560.000000, 92.659, 173.6775
570.000000, 92.690, 173.3102
580.000000, 92.705, 172.9290
590.000000, 92.706, 172.6245
600.000000, 92.714, 172.4632
608.000000, 92.735, 172.3118
615.000000, 92.756, 172.1190
622.000000, 92.775, 171.8889
630.000000, 92.796, 171.5612
640.000000, 92.813, 171.0688
650.000000, 92.813, 170.5219
660.000000, 92.791, 169.9165
670.000000, 92.732, 169.3362
680.000000, 92.642, 168.9748
690.000000, 92.548, 168.9661
700.000000, 92.475, 169.1672
710.000000, 92.427, 169.5143
720.000000, 92.411, 169.9501
730.000000, 92.424, 170.3493
740.000000, 92.457, 170.6523
750.000000, 92.496, 170.8466
762.000000, 92.538, 171.0217
775.000000, 92.587, 171.2918
788.000000, 92.657, 171.5782
800.000000, 92.747, 171.8229
812.000000, 92.860, 171.9302
825.000000, 92.987, 171.8066
838.000000, 93.098, 171.4991
850.000000, 93.184, 171.2010
862.000000, 93.268, 170.9217
875.000000, 93.364, 170.5965
885.000000, 93.442, 170.2840
900.000000, 93.547, 169.6849
912.000000, 93.620, 169.2243
925.000000, 93.707, 168.7836
938.000000, 93.801, 168.2256
950.000000, 93.884, 167.6768
962.000000, 93.967, 167.0203
975.000000, 94.043, 166.1891
988.000000, 94.091, 165.2826
1000.000000, 94.105, 164.4921
1015.000000, 94.104, 163.7908
1030.000000, 94.129, 163.3772
1044.000000, 94.199, 162.9720
1060.000000, 94.296, 162.1133
1075.000000, 94.334, 161.1420
1090.000000, 94.381, 160.5094
1106.000000, 94.476, 159.5685
1120.000000, 94.529, 158.5144
1138.000000, 94.541, 157.2865
1150.000000, 94.544, 156.6811
1172.000000, 94.548, 155.7253
1180.000000, 94.557, 155.5523
1206.000000, 94.709, 154.6841
1220.000000, 94.779, 153.7132
1241.000000, 94.818, 152.5097
1250.000000, 94.853, 152.1127
1265.000000, 94.914, 151.1132
1280.000000, 94.914, 149.9904
1315.000000, 94.849, 148.7092
1320.000000, 94.850, 148.6868
1340.000000, 94.958, 148.6978
1360.000000, 95.131, 147.5096
1380.000000, 95.136, 145.7614
1400.000000, 95.113, 144.8003
1430.000000, 95.134, 143.5901
1450.000000, 95.171, 142.7740
1475.000000, 95.198, 141.7281
1500.000000, 95.246, 140.9339
1525.000000, 95.326, 140.2213
1550.000000, 95.492, 139.0919
1575.000000, 95.537, 137.2116
1600.000000, 95.531, 135.9974
1625.000000, 95.547, 134.9946
1650.000000, 95.616, 134.0567
1675.000000, 95.689, 132.6542
1700.000000, 95.701, 131.1082
1725.000000, 95.666, 130.0444
1750.000000, 95.698, 129.1559
1775.000000, 95.706, 127.9785
1800.000000, 95.691, 127.0910
1825.000000, 95.714, 126.6082
1850.000000, 95.813, 125.9374
1875.000000, 95.921, 124.7972
1900.000000, 95.973, 123.3895
1925.000000, 95.969, 122.1761
1950.000000, 95.956, 121.5401
1975.000000, 96.037, 121.0673
2000.000000, 96.126, 119.9624
2030.000000, 96.170, 118.9082
2060.000000, 96.250, 118.1997
2090.000000, 96.399, 117.6411
2120.000000, 96.605, 116.7510
2140.000000, 96.773, 116.0203
2180.000000, 97.143, 113.4377
2200.000000, 97.244, 111.5636
2240.000000, 97.260, 108.7795
2270.000000, 97.367, 107.4321
2300.000000, 97.478, 105.2625
2330.000000, 97.475, 103.2062
2360.000000, 97.447, 101.9832
2400.000000, 97.553, 100.8374
2430.000000, 97.692, 99.8628
2470.000000, 97.943, 98.2122
2500.000000, 98.143, 96.7097
2540.000000, 98.423, 94.5200
2580.000000, 98.751, 91.9675
2620.000000, 99.050, 88.6211
2650.000000, 99.223, 85.9318
2690.000000, 99.422, 82.3389
2720.000000, 99.539, 79.4392
2760.000000, 99.629, 75.6124
2800.000000, 99.674, 72.1115
2850.000000, 99.734, 68.0011
2900.000000, 99.844, 63.9244
2950.000000, 99.925, 59.4147
3000.000000, 99.948, 54.9177
3040.000000, 99.934, 51.3622
3070.000000, 99.911, 48.8724
3110.000000, 99.910, 45.6704
3150.000000, 99.906, 42.1562
3200.000000, 99.835, 37.9583
3250.000000, 99.797, 34.0506
3300.000000, 99.767, 29.9135
3350.000000, 99.716, 25.7166
3400.000000, 99.658, 21.4838
3450.000000, 99.584, 17.0372
3500.000000, 99.449, 12.5319
3550.000000, 99.278, 8.3644
3600.000000, 99.108, 4.2125
3650.000000, 98.900, 0.0724
3700.000000, 98.653, -3.8427
3750.000000, 98.390, -7.5174
3820.000000, 97.976, -12.2688
3870.000000, 97.698, -15.1700
3950.000000, 97.310, -20.0681
4000.000000, 97.011, -23.2543
4060.000000, 96.572, -26.7251
4120.000000, 96.067, -29.5552
4180.000000, 95.516, -31.2751
4250.000000, 94.953, -31.6934
4310.000000, 94.611, -30.8251
4370.000000, 94.505, -29.1660
4440.000000, 94.696, -27.6896
4500.000000, 95.049, -27.1780
4550.000000, 95.474, -27.5195
4620.000000, 96.124, -29.7240
4680.000000, 96.662, -32.8486
4750.000000, 97.185, -37.6244
4820.000000, 97.598, -42.8866
4870.000000, 97.833, -46.9694
4940.000000, 98.050, -52.7561
5000.000000, 98.164, -57.4849
5080.000000, 98.279, -63.4237
5150.000000, 98.361, -68.2728
5220.000000, 98.468, -72.7246
5300.000000, 98.673, -77.5055
5380.000000, 99.017, -82.3618
5450.000000, 99.429, -87.1256
5520.000000, 99.923, -92.7559
5600.000000, 100.505, -100.5186
5700.000000, 101.153, -112.2224
5800.000000, 101.580, -126.0138
5900.000000, 101.628, -141.3771
6000.000000, 101.176, -156.9855
6080.000000, 100.479, -168.5018
6150.000000, 99.700, -177.3401
6220.000000, 98.841, 175.0214
6300.000000, 97.842, 167.7806
6400.000000, 96.663, 160.3135
6500.000000, 95.606, 154.0040
6600.000000, 94.651, 148.2850
6700.000000, 93.768, 142.8657
6800.000000, 92.914, 137.7048
6900.000000, 92.068, 132.9322
7000.000000, 91.233, 128.9148
7100.000000, 90.435, 125.8333
7200.000000, 89.716, 123.6083
7300.000000, 89.122, 122.2161
7400.000000, 88.688, 121.2852
7500.000000, 88.418, 120.5079
7620.000000, 88.303, 119.4930
7750.000000, 88.450, 118.3219
7880.000000, 88.864, 116.3762
8000.000000, 89.451, 112.6451
8120.000000, 90.076, 106.4542
8250.000000, 90.604, 97.3915
8380.000000, 90.853, 86.8151
8500.000000, 90.772, 76.6473
8620.000000, 90.408, 67.3062
8750.000000, 89.835, 59.1322
8850.000000, 89.426, 54.4592
9000.000000, 89.138, 49.2584
9120.000000, 89.364, 45.0785
9250.000000, 89.972, 37.5029
9380.000000, 90.464, 25.5946
9500.000000, 90.449, 12.1973
9620.000000, 89.882, -1.2451
9750.000000, 88.738, -13.7750
9880.000000, 87.274, -22.8424
10000.000000, 85.878, -27.7443
10150.000000, 84.340, -29.8918
10300.000000, 83.237, -28.1191
10440.000000, 82.919, -23.2302
10600.000000, 83.854, -17.9154
10750.000000, 85.592, -20.3199
10900.000000, 87.033, -31.3450
11060.000000, 87.601, -46.5449
11200.000000, 87.496, -58.0695
11380.000000, 87.233, -69.0721
11500.000000, 87.215, -75.1927
11720.000000, 87.464, -86.9362
11800.000000, 87.568, -91.5731
12060.000000, 87.794, -106.5583
12200.000000, 87.987, -113.6655
12410.000000, 88.722, -124.2542
12500.000000, 89.223, -129.6703
12650.000000, 90.192, -140.9460
12800.000000, 91.115, -155.5688
13150.000000, 91.747, 161.1521
13200.000000, 91.605, 154.7195
13400.000000, 90.530, 130.2103
13600.000000, 88.897, 108.9329
13800.000000, 87.020, 91.0764
14000.000000, 85.091, 76.2471
14300.000000, 82.299, 58.1210
14500.000000, 80.523, 47.3861
14750.000000, 78.081, 33.5363
15000.000000, 74.679, 23.8540
15250.000000, 73.761, 82.4531
15500.000000, 78.151, 91.6554
15750.000000, 81.169, 70.0696
16000.000000, 83.017, 48.4778
16250.000000, 84.462, 27.5870
16500.000000, 85.568, 5.3436
16750.000000, 86.185, -17.5374
17000.000000, 86.576, -39.9221
17250.000000, 86.925, -63.9940
17500.000000, 86.636, -91.3383
17750.000000, 85.100, -117.2887
18000.000000, 82.670, -135.7755
18250.000000, 80.236, -145.0444
18500.000000, 78.568, -147.2462
18750.000000, 78.081, -145.8143
19000.000000, 78.968, -144.3689
19250.000000, 80.941, -148.7268
19500.000000, 83.133, -162.0399
19750.000000, 84.844, 177.5498
20000.000000, 85.729, 153.1730
20300.000000, 85.708, 122.3121
20600.000000, 84.666, 92.7441
20900.000000, 82.861, 66.8572
21200.000000, 80.707, 44.9438
21400.000000, 79.185, 31.7787
21800.000000, 75.590, 6.6633
22000.000000, 73.043, -5.3967
22400.000000, 65.435, -27.9639
22700.000000, 57.814, -43.2247
23000.000000, 49.138, -60.4115
23300.000000, 40.216, -31.8359
23600.000000, 33.694, -47.0873
24000.000000, 31.267, -59.4208
