* Measurement data measured by REW V5.31.3
* Source: Headset (DS by VECLAN.COM), MICROPHONE (Master Volume), L, volume: 0.720. Timing signal peak level -12.4 dBFS, measurement signal peak level -12.3 dBFS
* Format: 2M Log Swept Sine, 1 sweep at -12.0 dBFS using an acoustic timing reference
* Dated: Sep 1, 2024 1:17:43 PM
* REW Settings:
*  C-weighting compensation: Off
*  Target level: 85.0 dB
* Note: ; Delay -0.0675 ms (-23 mm, -0.91 in) using estimated IR delay relative to Acoustic reference played from HEADPHONE R with no timing offset
* Measurement: Sennheiser HD58x R4
* Smoothing: 1/24 octave
* Frequency Step: 1/48 octave
* Start Frequency: 1.000 Hz
*
* Freq(Hz), SPL(dB), Phase(degrees)
1.000000, 61.180, -4.9553
1.015000, 61.318, -5.3588
1.030000, 61.458, -5.7732
1.044000, 61.590, -6.1700
1.060000, 61.742, -6.6358
1.075000, 61.885, -7.0843
1.090000, 62.030, -7.5431
1.106000, 62.187, -8.0356
1.120000, 62.329, -8.4552
1.138000, 62.520, -8.9708
1.150000, 62.652, -9.3001
1.172000, 62.903, -9.8841
1.180000, 62.996, -10.0956
1.206000, 63.305, -10.7598
1.220000, 63.475, -11.1053
1.241000, 63.732, -11.6114
1.250000, 63.843, -11.8247
1.265000, 64.027, -12.1765
1.280000, 64.211, -12.5250
1.315000, 64.633, -13.3317
1.320000, 64.692, -13.4467
1.340000, 64.925, -13.9082
1.360000, 65.149, -14.3716
1.380000, 65.364, -14.8777
1.400000, 65.568, -15.4046
1.430000, 65.848, -16.2087
1.450000, 66.016, -16.7540
1.475000, 66.202, -17.4329
1.500000, 66.362, -18.0749
1.525000, 66.500, -18.6681
1.550000, 66.618, -19.2182
1.575000, 66.718, -19.7538
1.600000, 66.806, -20.2993
1.625000, 66.882, -20.8217
1.650000, 66.951, -21.3270
1.675000, 67.014, -21.8203
1.700000, 67.077, -22.3062
1.725000, 67.140, -22.7888
1.750000, 67.208, -23.2715
1.775000, 67.283, -23.7742
1.800000, 67.369, -24.3154
1.825000, 67.466, -24.8595
1.850000, 67.575, -25.3932
1.875000, 67.689, -25.8978
1.900000, 67.807, -26.3702
1.925000, 67.929, -26.8144
1.950000, 68.053, -27.2345
1.975000, 68.180, -27.6521
2.000000, 68.309, -28.0874
2.030000, 68.465, -28.5939
2.060000, 68.622, -29.0906
2.090000, 68.781, -29.5830
2.120000, 68.939, -30.0759
2.140000, 69.044, -30.4067
2.180000, 69.251, -31.0975
2.200000, 69.354, -31.4638
2.240000, 69.560, -32.1730
2.270000, 69.715, -32.6739
2.300000, 69.871, -33.1504
2.330000, 70.027, -33.6066
2.360000, 70.183, -34.0476
2.400000, 70.391, -34.6665
2.430000, 70.547, -35.1295
2.470000, 70.753, -35.7429
2.500000, 70.906, -36.2041
2.540000, 71.108, -36.8245
2.580000, 71.308, -37.4651
2.620000, 71.506, -38.1249
2.650000, 71.654, -38.6014
2.690000, 71.850, -39.2158
2.720000, 71.996, -39.6634
2.760000, 72.189, -40.2454
2.800000, 72.380, -40.8567
2.850000, 72.615, -41.6199
2.900000, 72.846, -42.3830
2.950000, 73.072, -43.1467
3.000000, 73.294, -43.9275
3.040000, 73.468, -44.5475
3.070000, 73.597, -45.0033
3.110000, 73.767, -45.5996
3.150000, 73.935, -46.1848
3.200000, 74.140, -46.9350
3.250000, 74.342, -47.6907
3.300000, 74.540, -48.4411
3.350000, 74.733, -49.1834
3.400000, 74.923, -49.9468
3.450000, 75.108, -50.7088
3.500000, 75.290, -51.4539
3.550000, 75.467, -52.1815
3.600000, 75.641, -52.9195
3.650000, 75.810, -53.6553
3.700000, 75.975, -54.3817
3.750000, 76.135, -55.1008
3.820000, 76.353, -56.1247
3.870000, 76.504, -56.8458
3.950000, 76.738, -57.9612
4.000000, 76.880, -58.6549
4.060000, 77.046, -59.4785
4.120000, 77.207, -60.2886
4.180000, 77.363, -61.0909
4.250000, 77.539, -62.0328
4.310000, 77.686, -62.8092
4.370000, 77.828, -63.5587
4.440000, 77.988, -64.4347
4.500000, 78.120, -65.1684
4.550000, 78.227, -65.7659
4.620000, 78.372, -66.6036
4.680000, 78.493, -67.2985
4.750000, 78.631, -68.0700
4.820000, 78.766, -68.8286
4.870000, 78.860, -69.3583
4.940000, 78.987, -70.0756
5.000000, 79.094, -70.6812
5.080000, 79.234, -71.4625
5.150000, 79.354, -72.1078
5.220000, 79.471, -72.7446
5.300000, 79.601, -73.4480
5.380000, 79.729, -74.1207
5.450000, 79.841, -74.7015
5.520000, 79.951, -75.2545
5.600000, 80.076, -75.8669
5.700000, 80.231, -76.6115
5.800000, 80.384, -77.3284
5.900000, 80.536, -78.0343
6.000000, 80.687, -78.7176
6.080000, 80.808, -79.2618
6.150000, 80.912, -79.7244
6.220000, 81.016, -80.1942
6.300000, 81.133, -80.7250
6.400000, 81.279, -81.3812
6.500000, 81.422, -82.0387
6.600000, 81.563, -82.6882
6.700000, 81.700, -83.3430
6.800000, 81.834, -83.9910
6.900000, 81.965, -84.6356
7.000000, 82.092, -85.2657
7.100000, 82.215, -85.8927
7.200000, 82.335, -86.5061
7.300000, 82.451, -87.1059
7.400000, 82.564, -87.6841
7.500000, 82.672, -88.2535
7.620000, 82.799, -88.9070
7.750000, 82.934, -89.5721
7.880000, 83.065, -90.2034
8.000000, 83.185, -90.7507
8.120000, 83.305, -91.2712
8.250000, 83.435, -91.8054
8.380000, 83.567, -92.3175
8.500000, 83.690, -92.7827
8.620000, 83.814, -93.2367
8.750000, 83.950, -93.7295
8.850000, 84.055, -94.1164
9.000000, 84.213, -94.7033
9.120000, 84.338, -95.1889
9.250000, 84.472, -95.7379
9.380000, 84.602, -96.3030
9.500000, 84.718, -96.8390
9.620000, 84.830, -97.3816
9.750000, 84.943, -97.9758
9.880000, 85.043, -98.5683
10.000000, 85.120, -99.1008
10.150000, 85.198, -99.7808
10.300000, 85.262, -100.4113
10.440000, 85.310, -100.9512
10.600000, 85.358, -101.5057
10.750000, 85.402, -101.9583
10.900000, 85.446, -102.3517
11.060000, 85.498, -102.7389
11.200000, 85.548, -103.0716
11.380000, 85.616, -103.4582
11.500000, 85.664, -103.6970
11.720000, 85.760, -104.1170
11.800000, 85.797, -104.2700
12.060000, 85.926, -104.8026
12.200000, 85.999, -105.1465
12.410000, 86.109, -105.6796
12.500000, 86.155, -105.9129
12.650000, 86.228, -106.3063
12.800000, 86.297, -106.6993
13.150000, 86.445, -107.6427
13.200000, 86.466, -107.7820
13.400000, 86.545, -108.3213
13.600000, 86.622, -108.8288
13.800000, 86.697, -109.3031
14.000000, 86.771, -109.7522
14.300000, 86.882, -110.4574
14.500000, 86.955, -110.9035
14.750000, 87.045, -111.4360
15.000000, 87.137, -111.9486
15.250000, 87.234, -112.5004
15.500000, 87.333, -113.0415
15.750000, 87.429, -113.5728
16.000000, 87.523, -114.0974
16.250000, 87.614, -114.6587
16.500000, 87.701, -115.2061
16.750000, 87.785, -115.7302
17.000000, 87.867, -116.2265
17.250000, 87.949, -116.7187
17.500000, 88.032, -117.1809
17.750000, 88.117, -117.6187
18.000000, 88.203, -118.0479
18.250000, 88.292, -118.5028
18.500000, 88.381, -118.9722
18.750000, 88.467, -119.4545
19.000000, 88.550, -119.9448
19.250000, 88.628, -120.4554
19.500000, 88.700, -120.9475
19.750000, 88.768, -121.4101
20.000000, 88.833, -121.8383
20.299999, 88.910, -122.3413
20.600000, 88.988, -122.8119
20.900000, 89.066, -123.2660
21.200001, 89.143, -123.7334
21.400000, 89.193, -124.0491
21.799999, 89.287, -124.6668
22.000000, 89.332, -124.9661
22.400000, 89.417, -125.5695
22.700001, 89.480, -125.9988
23.000000, 89.542, -126.4153
23.299999, 89.604, -126.8436
23.600000, 89.665, -127.2685
24.000000, 89.746, -127.8296
24.299999, 89.805, -128.2647
24.700001, 89.882, -128.8412
25.000000, 89.938, -129.2694
25.400000, 90.010, -129.8542
25.799999, 90.079, -130.4237
26.200001, 90.146, -130.9880
26.500000, 90.197, -131.4172
26.900000, 90.264, -132.0036
27.200001, 90.311, -132.4656
27.600000, 90.364, -133.0891
28.000000, 90.403, -133.6659
28.500000, 90.439, -134.2473
29.000000, 90.485, -134.6335
29.500000, 90.559, -134.9514
30.000000, 90.655, -135.3499
30.400000, 90.732, -135.7864
30.700001, 90.784, -136.1584
31.100000, 90.842, -136.6733
31.500000, 90.889, -137.1774
32.000000, 90.942, -137.7461
32.500000, 90.994, -138.2791
33.000000, 91.045, -138.7880
33.500000, 91.095, -139.2949
34.000000, 91.147, -139.7945
34.500000, 91.202, -140.3116
35.000000, 91.256, -140.8542
35.500000, 91.305, -141.4284
36.000000, 91.350, -142.0158
36.500000, 91.389, -142.6115
37.000000, 91.424, -143.2123
37.500000, 91.451, -143.8268
38.200001, 91.469, -144.6597
38.700001, 91.467, -145.1674
39.500000, 91.457, -145.7000
40.000000, 91.467, -145.8887
40.599998, 91.501, -146.1088
41.200001, 91.544, -146.3898
41.799999, 91.585, -146.7101
42.500000, 91.636, -147.1193
43.099998, 91.679, -147.5636
43.700001, 91.705, -148.0842
44.400002, 91.708, -148.6171
45.000000, 91.712, -148.9519
45.500000, 91.728, -149.2318
46.200001, 91.751, -149.7362
46.799999, 91.756, -150.1949
47.500000, 91.757, -150.5890
48.200001, 91.784, -150.8780
48.700001, 91.818, -151.1206
49.400002, 91.874, -151.5479
50.000000, 91.922, -151.9636
50.799999, 91.986, -152.5973
51.500000, 92.030, -153.2291
52.200001, 92.057, -153.8676
53.000000, 92.076, -154.6068
53.799999, 92.071, -155.4380
54.500000, 92.032, -156.1711
55.200001, 91.966, -156.8331
56.000000, 91.860, -157.4813
57.000000, 91.679, -157.8977
58.000000, 91.507, -157.6814
59.000000, 91.394, -156.9853
60.000000, 91.387, -156.0787
60.799999, 91.447, -155.6780
61.500000, 91.489, -155.6265
62.200001, 91.505, -155.6118
63.000000, 91.511, -155.4813
64.000000, 91.520, -155.1385
65.000000, 91.559, -154.6320
66.000000, 91.643, -154.2094
67.000000, 91.739, -153.9837
68.000000, 91.845, -153.8257
69.000000, 91.975, -153.8296
70.000000, 92.102, -154.1535
71.000000, 92.191, -154.6535
72.000000, 92.250, -155.0750
73.000000, 92.308, -155.3731
74.000000, 92.376, -155.7031
75.000000, 92.439, -156.1219
76.199997, 92.499, -156.6665
77.500000, 92.555, -157.2540
78.800003, 92.601, -157.8619
80.000000, 92.635, -158.4244
81.199997, 92.661, -158.9603
82.500000, 92.684, -159.4750
83.800003, 92.708, -159.9553
85.000000, 92.727, -160.3898
86.199997, 92.746, -160.8124
87.500000, 92.762, -161.2816
88.500000, 92.770, -161.6442
90.000000, 92.777, -162.1934
91.199997, 92.778, -162.6566
92.500000, 92.768, -163.1878
93.800003, 92.742, -163.6691
95.000000, 92.710, -164.0436
96.199997, 92.668, -164.3488
97.500000, 92.617, -164.5810
98.800003, 92.564, -164.7297
100.000000, 92.512, -164.7637
101.500000, 92.460, -164.6009
103.000000, 92.444, -164.2843
104.400002, 92.463, -164.0060
106.000000, 92.507, -163.8190
107.500000, 92.555, -163.8010
109.000000, 92.598, -163.9279
110.599998, 92.641, -164.1535
112.000000, 92.677, -164.4050
113.800003, 92.717, -164.7826
115.000000, 92.737, -165.0337
117.199997, 92.760, -165.4896
118.000000, 92.765, -165.6536
120.599998, 92.776, -166.2189
122.000000, 92.771, -166.5769
124.099998, 92.739, -166.9247
125.000000, 92.728, -166.9703
126.500000, 92.722, -167.0284
128.000000, 92.723, -167.1624
131.500000, 92.716, -167.5163
132.000000, 92.718, -167.5524
134.000000, 92.731, -167.7296
136.000000, 92.741, -167.9256
138.000000, 92.745, -168.1461
140.000000, 92.745, -168.4041
143.000000, 92.733, -168.8078
145.000000, 92.716, -168.9927
147.500000, 92.694, -169.1153
150.000000, 92.684, -169.1912
152.500000, 92.676, -169.2673
155.000000, 92.669, -169.3047
157.500000, 92.668, -169.3543
160.000000, 92.670, -169.4398
162.500000, 92.677, -169.5474
165.000000, 92.675, -169.7003
167.500000, 92.661, -169.8259
170.000000, 92.640, -169.8969
172.500000, 92.621, -169.9488
175.000000, 92.610, -170.0045
177.500000, 92.604, -170.0226
180.000000, 92.605, -170.0070
182.500000, 92.608, -170.0456
185.000000, 92.609, -170.1408
187.500000, 92.603, -170.2570
190.000000, 92.591, -170.3634
192.500000, 92.579, -170.4446
195.000000, 92.571, -170.5222
197.500000, 92.565, -170.5912
200.000000, 92.559, -170.6541
203.000000, 92.550, -170.7436
206.000000, 92.534, -170.8525
209.000000, 92.508, -170.9113
212.000000, 92.483, -170.8706
214.000000, 92.470, -170.7904
218.000000, 92.456, -170.6583
220.000000, 92.452, -170.6354
224.000000, 92.444, -170.6281
227.000000, 92.438, -170.6195
230.000000, 92.432, -170.6192
233.000000, 92.426, -170.6267
236.000000, 92.419, -170.6249
240.000000, 92.405, -170.6191
243.000000, 92.393, -170.6132
247.000000, 92.373, -170.6073
250.000000, 92.357, -170.5863
254.000000, 92.343, -170.5562
258.000000, 92.326, -170.5174
262.000000, 92.306, -170.4553
265.000000, 92.290, -170.3937
269.000000, 92.269, -170.3077
272.000000, 92.253, -170.2268
276.000000, 92.232, -170.0829
280.000000, 92.214, -169.8932
285.000000, 92.200, -169.6185
290.000000, 92.192, -169.3726
295.000000, 92.181, -169.1201
300.000000, 92.174, -168.8768
304.000000, 92.177, -168.7051
307.000000, 92.182, -168.5786
311.000000, 92.187, -168.4232
315.000000, 92.191, -168.2505
320.000000, 92.194, -168.0281
325.000000, 92.197, -167.7695
330.000000, 92.205, -167.4823
335.000000, 92.222, -167.2188
340.000000, 92.243, -167.0208
345.000000, 92.259, -166.8886
350.000000, 92.266, -166.7434
355.000000, 92.270, -166.5873
360.000000, 92.276, -166.4403
365.000000, 92.284, -166.3021
370.000000, 92.288, -166.1722
375.000000, 92.287, -166.0138
382.000000, 92.287, -165.7628
387.000000, 92.289, -165.6233
395.000000, 92.288, -165.4186
400.000000, 92.284, -165.2901
406.000000, 92.273, -165.1057
412.000000, 92.261, -164.8868
418.000000, 92.250, -164.6474
425.000000, 92.236, -164.3373
431.000000, 92.227, -163.9964
437.000000, 92.223, -163.6607
444.000000, 92.220, -163.2746
450.000000, 92.222, -162.9440
455.000000, 92.226, -162.6447
462.000000, 92.236, -162.2255
468.000000, 92.250, -161.8486
475.000000, 92.274, -161.4402
482.000000, 92.305, -161.0876
487.000000, 92.330, -160.8638
494.000000, 92.362, -160.5869
500.000000, 92.385, -160.3791
508.000000, 92.414, -160.0846
515.000000, 92.441, -159.8218
522.000000, 92.467, -159.5558
530.000000, 92.495, -159.2824
538.000000, 92.520, -159.0195
545.000000, 92.543, -158.7847
552.000000, 92.566, -158.5405
560.000000, 92.596, -158.2537
570.000000, 92.640, -157.8826
580.000000, 92.687, -157.5975
590.000000, 92.729, -157.3463
600.000000, 92.774, -157.0944
608.000000, 92.810, -156.9476
615.000000, 92.837, -156.8687
622.000000, 92.857, -156.8204
630.000000, 92.872, -156.7838
640.000000, 92.881, -156.7332
650.000000, 92.883, -156.6647
660.000000, 92.872, -156.6515
670.000000, 92.838, -156.5739
680.000000, 92.794, -156.3622
690.000000, 92.754, -156.0192
700.000000, 92.726, -155.6334
710.000000, 92.700, -155.3236
720.000000, 92.649, -155.0257
730.000000, 92.575, -154.5334
740.000000, 92.502, -153.7384
750.000000, 92.458, -152.6924
762.000000, 92.453, -151.3520
775.000000, 92.501, -149.9583
788.000000, 92.581, -148.7666
800.000000, 92.667, -147.8112
812.000000, 92.765, -146.9476
825.000000, 92.875, -146.1026
838.000000, 92.985, -145.3804
850.000000, 93.096, -144.7634
862.000000, 93.215, -144.2893
875.000000, 93.338, -143.9680
885.000000, 93.418, -143.7795
900.000000, 93.525, -143.5507
912.000000, 93.597, -143.3721
925.000000, 93.670, -143.1123
938.000000, 93.750, -142.8414
950.000000, 93.825, -142.6721
962.000000, 93.893, -142.5614
975.000000, 93.956, -142.5106
988.000000, 93.994, -142.4813
1000.000000, 94.023, -142.3480
1015.000000, 94.056, -142.1453
1030.000000, 94.092, -141.9258
1044.000000, 94.133, -141.7701
1060.000000, 94.175, -141.6010
1075.000000, 94.195, -141.4079
1090.000000, 94.209, -141.0687
1106.000000, 94.264, -140.5030
1120.000000, 94.341, -140.0899
1138.000000, 94.446, -139.8037
1150.000000, 94.502, -139.7545
1172.000000, 94.578, -139.4082
1180.000000, 94.618, -139.2676
1206.000000, 94.754, -139.0849
1220.000000, 94.811, -139.1758
1241.000000, 94.816, -139.3367
1250.000000, 94.799, -139.1300
1265.000000, 94.815, -138.4328
1280.000000, 94.902, -137.8494
1315.000000, 95.057, -137.6931
1320.000000, 95.065, -137.6389
1340.000000, 95.097, -137.1632
1360.000000, 95.161, -136.6345
1380.000000, 95.241, -136.5255
1400.000000, 95.271, -136.6616
1430.000000, 95.271, -136.1072
1450.000000, 95.328, -135.6116
1475.000000, 95.384, -135.4141
1500.000000, 95.382, -134.9724
1525.000000, 95.439, -134.1752
1550.000000, 95.488, -134.1422
1575.000000, 95.406, -133.5691
1600.000000, 95.418, -132.0399
1625.000000, 95.560, -131.0322
1650.000000, 95.649, -130.7546
1675.000000, 95.667, -130.0609
1700.000000, 95.756, -129.1435
1725.000000, 95.820, -128.6992
1750.000000, 95.869, -127.6475
1775.000000, 96.025, -126.7608
1800.000000, 96.153, -126.6604
1825.000000, 96.192, -126.3454
1850.000000, 96.257, -125.6708
1875.000000, 96.333, -125.1564
1900.000000, 96.409, -124.4412
1925.000000, 96.542, -123.7963
1950.000000, 96.656, -123.6805
1975.000000, 96.706, -123.4672
2000.000000, 96.777, -122.9388
2030.000000, 96.858, -122.7397
2060.000000, 96.883, -122.2351
2090.000000, 96.931, -121.5200
2120.000000, 96.957, -120.5755
2140.000000, 97.022, -119.5703
2180.000000, 97.293, -118.2960
2200.000000, 97.402, -118.0089
2240.000000, 97.613, -117.5086
2270.000000, 97.732, -117.3722
2300.000000, 97.832, -117.0256
2330.000000, 97.939, -116.8478
2360.000000, 97.959, -116.6143
2400.000000, 98.023, -114.9405
2430.000000, 98.215, -113.6414
2470.000000, 98.572, -112.5101
2500.000000, 98.863, -112.4349
2540.000000, 99.155, -112.8809
2580.000000, 99.388, -113.3015
2620.000000, 99.603, -113.6647
2650.000000, 99.776, -113.9657
2690.000000, 99.999, -114.6754
2720.000000, 100.141, -115.3205
2760.000000, 100.306, -116.3062
2800.000000, 100.446, -117.4100
2850.000000, 100.531, -119.2115
2900.000000, 100.493, -120.5363
2950.000000, 100.434, -121.1567
3000.000000, 100.423, -121.5049
3040.000000, 100.412, -121.7383
3070.000000, 100.411, -121.7896
3110.000000, 100.448, -121.6818
3150.000000, 100.545, -121.8526
3200.000000, 100.628, -122.5225
3250.000000, 100.720, -123.1650
3300.000000, 100.806, -124.3379
3350.000000, 100.800, -125.7101
3400.000000, 100.784, -126.8620
3450.000000, 100.751, -128.3240
3500.000000, 100.655, -129.7924
3550.000000, 100.500, -131.1167
3600.000000, 100.288, -132.1967
3650.000000, 100.070, -132.9825
3700.000000, 99.833, -133.8357
3750.000000, 99.541, -134.3911
3820.000000, 99.163, -134.4168
3870.000000, 98.910, -134.6221
3950.000000, 98.371, -134.7366
4000.000000, 97.980, -134.2998
4060.000000, 97.491, -133.3524
4120.000000, 96.987, -131.8405
4180.000000, 96.454, -129.6705
4250.000000, 95.817, -125.5762
4310.000000, 95.426, -120.5021
4370.000000, 95.226, -115.0889
4440.000000, 95.261, -107.8855
4500.000000, 95.664, -102.3156
4550.000000, 96.122, -99.1832
4620.000000, 96.735, -96.4756
4680.000000, 97.228, -94.8560
4750.000000, 97.838, -93.9949
4820.000000, 98.349, -94.7701
4870.000000, 98.584, -95.7751
4940.000000, 98.772, -96.9699
5000.000000, 98.856, -97.7428
5080.000000, 98.885, -98.0558
5150.000000, 98.948, -97.6915
5220.000000, 99.075, -97.3185
5300.000000, 99.242, -97.1109
5380.000000, 99.455, -96.8192
5450.000000, 99.725, -96.7338
5520.000000, 100.072, -97.2447
5600.000000, 100.505, -98.8314
5700.000000, 101.025, -102.7364
5800.000000, 101.313, -108.9248
5900.000000, 101.184, -116.3502
6000.000000, 100.587, -123.5853
6080.000000, 99.820, -128.3675
6150.000000, 98.996, -131.3907
6220.000000, 98.098, -133.2983
6300.000000, 97.037, -134.1308
6400.000000, 95.737, -133.4017
6500.000000, 94.520, -131.1259
6600.000000, 93.419, -127.7051
6700.000000, 92.430, -123.5627
6800.000000, 91.533, -118.7832
6900.000000, 90.736, -113.3515
7000.000000, 90.052, -107.1766
7100.000000, 89.496, -100.2970
7200.000000, 89.110, -92.6770
7300.000000, 88.956, -84.7202
7400.000000, 89.023, -77.1447
7500.000000, 89.266, -70.2761
7620.000000, 89.736, -63.2588
7750.000000, 90.372, -57.2097
7880.000000, 90.968, -52.6660
8000.000000, 91.462, -49.5366
8120.000000, 91.899, -47.1095
8250.000000, 92.334, -44.8259
8380.000000, 92.824, -42.9190
8500.000000, 93.340, -42.2998
8620.000000, 93.791, -43.2775
8750.000000, 94.031, -45.7698
8850.000000, 94.002, -47.8409
9000.000000, 93.741, -50.0782
9120.000000, 93.532, -51.2323
9250.000000, 93.347, -53.3686
9380.000000, 92.969, -57.0225
9500.000000, 92.249, -60.8224
9620.000000, 91.147, -63.4921
9750.000000, 89.644, -63.9478
9880.000000, 88.007, -61.4543
10000.000000, 86.519, -56.5418
10150.000000, 84.810, -47.4928
10300.000000, 83.333, -35.3461
10440.000000, 82.291, -20.8311
10600.000000, 81.853, -0.4038
10750.000000, 82.656, 20.0767
10900.000000, 84.711, 35.9417
11060.000000, 87.441, 41.6244
11200.000000, 89.122, 36.6700
11380.000000, 89.230, 26.2440
11500.000000, 88.308, 23.9200
11720.000000, 86.639, 33.5093
11800.000000, 86.419, 39.6420
12060.000000, 87.273, 59.8763
12200.000000, 88.501, 68.4195
12410.000000, 90.971, 75.4162
12500.000000, 92.134, 75.6918
12650.000000, 93.962, 72.1418
12800.000000, 95.351, 63.8993
13150.000000, 95.523, 37.6364
13200.000000, 95.213, 34.5284
13400.000000, 93.521, 25.8380
13600.000000, 91.623, 22.9651
13800.000000, 89.919, 24.1026
14000.000000, 88.558, 27.5461
14300.000000, 87.250, 33.3519
14500.000000, 86.721, 35.1558
14750.000000, 86.118, 33.4168
15000.000000, 85.312, 24.4600
15250.000000, 83.372, 4.1375
15500.000000, 79.340, -35.9519
15750.000000, 76.828, -139.0900
16000.000000, 79.289, -170.5768
16250.000000, 82.058, -177.1730
16500.000000, 84.341, -179.1154
16750.000000, 86.396, 179.0992
17000.000000, 88.145, 174.6682
17250.000000, 89.346, 167.1940
17500.000000, 89.826, 157.4464
17750.000000, 89.323, 146.8251
18000.000000, 87.644, 138.7428
18250.000000, 84.966, 137.9480
18500.000000, 81.929, 149.1663
18750.000000, 79.892, 174.7088
19000.000000, 80.263, -155.7550
19250.000000, 82.265, -136.9270
19500.000000, 84.351, -129.7328
19750.000000, 85.768, -129.2823
20000.000000, 86.347, -131.0699
20300.000000, 86.299, -133.0794
20600.000000, 85.755, -134.5619
20900.000000, 84.683, -135.3420
21200.000000, 83.054, -134.8407
21400.000000, 81.691, -133.4658
21800.000000, 78.210, -128.8789
22000.000000, 75.702, -126.0823
22400.000000, 68.121, -119.4036
22700.000000, 60.478, -112.7224
23000.000000, 51.740, -107.6462
23300.000000, 42.551, -53.3853
23600.000000, 35.040, -51.1816
24000.000000, 31.780, 97.5520
