* Measurement data measured by REW V5.31.3
* Source: Headset (DS by VECLAN.COM), MICROPHONE (Master Volume), L, volume: 0.720. Timing signal peak level -16.1 dBFS, measurement signal peak level -16.0 dBFS
* Format: 2M Log Swept Sine, 1 sweep at -22.5 dBFS using an acoustic timing reference
* Dated: Oct 15, 2024 12:58:28 PM
* REW Settings:
*  C-weighting compensation: Off
*  Target level: 85.0 dB
* Note: ; Fosi DS1 Delay -0.0600 ms (-21 mm, -0.81 in) using estimated IR delay relative to Acoustic reference played from SPEAKER R with no timing offset Clock adjustment: -26.4 ppm
* Measurement: No Back Foam R3
* Smoothing: 1/24 octave
* Frequency Step: 1/48 octave
* Start Frequency: 1.000 Hz
*
* Freq(Hz), SPL(dB), Phase(degrees)
1.000000, 37.825, 1.9630
1.015000, 38.214, 4.2012
1.030000, 38.607, 6.3897
1.044000, 38.975, 8.3791
1.060000, 39.395, 10.5798
1.075000, 39.788, 12.5464
1.090000, 40.178, 14.2602
1.106000, 40.599, 15.1597
1.120000, 40.981, 15.2518
1.138000, 41.500, 15.3253
1.150000, 41.861, 15.4427
1.172000, 42.551, 15.7554
1.180000, 42.810, 15.8821
1.206000, 43.677, 16.2995
1.220000, 44.156, 16.5040
1.241000, 44.886, 16.7551
1.250000, 45.201, 16.8370
1.265000, 45.730, 16.9336
1.280000, 46.259, 16.9764
1.315000, 47.485, 16.8501
1.320000, 47.658, 16.8054
1.340000, 48.340, 16.5588
1.360000, 49.005, 16.2060
1.380000, 49.646, 15.7109
1.400000, 50.259, 15.0999
1.430000, 51.115, 14.0038
1.450000, 51.636, 13.1675
1.475000, 52.230, 12.0756
1.500000, 52.771, 11.0850
1.525000, 53.269, 10.2386
1.550000, 53.728, 9.5046
1.575000, 54.152, 8.8320
1.600000, 54.546, 8.1790
1.625000, 54.915, 7.5530
1.650000, 55.262, 6.9355
1.675000, 55.592, 6.3118
1.700000, 55.908, 5.6700
1.725000, 56.216, 5.0011
1.750000, 56.520, 4.2982
1.775000, 56.824, 3.5420
1.800000, 57.132, 2.7165
1.825000, 57.446, 1.8559
1.850000, 57.762, 0.9966
1.875000, 58.072, 0.1854
1.900000, 58.374, -0.5688
1.925000, 58.667, -1.2740
1.950000, 58.952, -1.9397
1.975000, 59.230, -2.5860
2.000000, 59.501, -3.2318
2.030000, 59.818, -3.9876
2.060000, 60.127, -4.7342
2.090000, 60.429, -5.4818
2.120000, 60.725, -6.2388
2.140000, 60.920, -6.7524
2.180000, 61.303, -7.8257
2.200000, 61.492, -8.3903
2.240000, 61.861, -9.4983
2.270000, 62.129, -10.2912
2.300000, 62.390, -11.0511
2.330000, 62.644, -11.7818
2.360000, 62.892, -12.4882
2.400000, 63.213, -13.4376
2.430000, 63.448, -14.1381
2.470000, 63.754, -15.0579
2.500000, 63.980, -15.7426
2.540000, 64.274, -16.6549
2.580000, 64.563, -17.5807
2.620000, 64.844, -18.5185
2.650000, 65.049, -19.2021
2.690000, 65.315, -20.0862
2.720000, 65.509, -20.7290
2.760000, 65.762, -21.5591
2.800000, 66.008, -22.3991
2.850000, 66.308, -23.4225
2.900000, 66.600, -24.4169
2.950000, 66.884, -25.3888
3.000000, 67.159, -26.3639
3.040000, 67.372, -27.1326
3.070000, 67.528, -27.6946
3.110000, 67.731, -28.4236
3.150000, 67.929, -29.1286
3.200000, 68.170, -30.0057
3.250000, 68.406, -30.8603
3.300000, 68.637, -31.6819
3.350000, 68.861, -32.4758
3.400000, 69.078, -33.2701
3.450000, 69.288, -34.0470
3.500000, 69.493, -34.7932
3.550000, 69.693, -35.5057
3.600000, 69.890, -36.2102
3.650000, 70.083, -36.8920
3.700000, 70.273, -37.5435
3.750000, 70.458, -38.1694
3.820000, 70.711, -39.0325
3.870000, 70.887, -39.6251
3.950000, 71.163, -40.5194
4.000000, 71.333, -41.0680
4.060000, 71.534, -41.7048
4.120000, 71.732, -42.3069
4.180000, 71.927, -42.8843
4.250000, 72.150, -43.5523
4.310000, 72.339, -44.0977
4.370000, 72.526, -44.6241
4.440000, 72.743, -45.2375
4.500000, 72.928, -45.7369
4.550000, 73.080, -46.1357
4.620000, 73.291, -46.6978
4.680000, 73.470, -47.1717
4.750000, 73.678, -47.7127
4.820000, 73.884, -48.2604
4.870000, 74.030, -48.6437
4.940000, 74.233, -49.1653
5.000000, 74.406, -49.6179
5.080000, 74.633, -50.2284
5.150000, 74.830, -50.7602
5.220000, 75.024, -51.3058
5.300000, 75.244, -51.9267
5.380000, 75.460, -52.5429
5.450000, 75.645, -53.0999
5.520000, 75.826, -53.6544
5.600000, 76.028, -54.2966
5.700000, 76.274, -55.1087
5.800000, 76.513, -55.9132
5.900000, 76.743, -56.7226
6.000000, 76.966, -57.5294
6.080000, 77.138, -58.1759
6.150000, 77.285, -58.7249
6.220000, 77.427, -59.2760
6.300000, 77.585, -59.8945
6.400000, 77.775, -60.6560
6.500000, 77.957, -61.4031
6.600000, 78.133, -62.1176
6.700000, 78.304, -62.8162
6.800000, 78.469, -63.4887
6.900000, 78.628, -64.1388
7.000000, 78.783, -64.7517
7.100000, 78.932, -65.3409
7.200000, 79.078, -65.9011
7.300000, 79.221, -66.4403
7.400000, 79.364, -66.9496
7.500000, 79.505, -67.4388
7.620000, 79.672, -68.0005
7.750000, 79.851, -68.5849
7.880000, 80.028, -69.1552
8.000000, 80.188, -69.6631
8.120000, 80.347, -70.1676
8.250000, 80.518, -70.7070
8.380000, 80.684, -71.2336
8.500000, 80.835, -71.7153
8.620000, 80.981, -72.1875
8.750000, 81.137, -72.6843
8.850000, 81.254, -73.0558
9.000000, 81.426, -73.5894
9.120000, 81.562, -73.9999
9.250000, 81.708, -74.4233
9.380000, 81.853, -74.8231
9.500000, 81.987, -75.1858
9.620000, 82.123, -75.5332
9.750000, 82.270, -75.9015
9.880000, 82.412, -76.2719
10.000000, 82.537, -76.6132
10.150000, 82.686, -77.0829
10.300000, 82.830, -77.5779
10.440000, 82.961, -78.0672
10.600000, 83.107, -78.6659
10.750000, 83.241, -79.2740
10.900000, 83.371, -79.9204
11.060000, 83.503, -80.6760
11.200000, 83.610, -81.4069
11.380000, 83.734, -82.3485
11.500000, 83.806, -82.9691
11.720000, 83.919, -84.0567
11.800000, 83.955, -84.4259
12.060000, 84.062, -85.5315
12.200000, 84.118, -86.0735
12.410000, 84.201, -86.7702
12.500000, 84.238, -87.0278
12.650000, 84.302, -87.4076
12.800000, 84.371, -87.7435
13.150000, 84.562, -88.4917
13.200000, 84.592, -88.6088
13.400000, 84.723, -89.0983
13.600000, 84.860, -89.6407
13.800000, 84.996, -90.2479
14.000000, 85.127, -90.9153
14.300000, 85.304, -92.0487
14.500000, 85.404, -92.8050
14.750000, 85.510, -93.6926
15.000000, 85.604, -94.4771
15.250000, 85.698, -95.1820
15.500000, 85.796, -95.7672
15.750000, 85.902, -96.2612
16.000000, 86.019, -96.7130
16.250000, 86.148, -97.2154
16.500000, 86.282, -97.7558
16.750000, 86.416, -98.3472
17.000000, 86.545, -98.9845
17.250000, 86.666, -99.6757
17.500000, 86.777, -100.3620
17.750000, 86.877, -101.0137
18.000000, 86.971, -101.6203
18.250000, 87.062, -102.2073
18.500000, 87.153, -102.7560
18.750000, 87.244, -103.2782
19.000000, 87.338, -103.7901
19.250000, 87.431, -104.3312
19.500000, 87.521, -104.8728
19.750000, 87.605, -105.4064
20.000000, 87.684, -105.9182
20.299999, 87.772, -106.5166
20.600000, 87.857, -107.0469
20.900000, 87.944, -107.5119
21.200001, 88.037, -107.9538
21.400000, 88.103, -108.2487
21.799999, 88.243, -108.8678
22.000000, 88.315, -109.2073
22.400000, 88.454, -109.9784
22.700001, 88.549, -110.5927
23.000000, 88.635, -111.2096
23.299999, 88.714, -111.8177
23.600000, 88.787, -112.3885
24.000000, 88.885, -113.0926
24.299999, 88.961, -113.6122
24.700001, 89.063, -114.2996
25.000000, 89.137, -114.8188
25.400000, 89.231, -115.5265
25.799999, 89.316, -116.2021
26.200001, 89.395, -116.8332
26.500000, 89.454, -117.2749
26.900000, 89.534, -117.8184
27.200001, 89.598, -118.2134
27.600000, 89.685, -118.7383
28.000000, 89.772, -119.2692
28.500000, 89.881, -119.9760
29.000000, 89.984, -120.6992
29.500000, 90.077, -121.4268
30.000000, 90.160, -122.1303
30.400000, 90.221, -122.6790
30.700001, 90.266, -123.0698
31.100000, 90.326, -123.5743
31.500000, 90.387, -124.0784
32.000000, 90.461, -124.7045
32.500000, 90.530, -125.3205
33.000000, 90.598, -125.9049
33.500000, 90.668, -126.4973
34.000000, 90.739, -127.1012
34.500000, 90.804, -127.7043
35.000000, 90.861, -128.2647
35.500000, 90.918, -128.7679
36.000000, 90.982, -129.2352
36.500000, 91.051, -129.7320
37.000000, 91.117, -130.2745
37.500000, 91.172, -130.8380
38.200001, 91.237, -131.5580
38.700001, 91.284, -132.0282
39.500000, 91.365, -132.7896
40.000000, 91.412, -133.2818
40.599998, 91.462, -133.8766
41.200001, 91.510, -134.4257
41.799999, 91.562, -134.9490
42.500000, 91.625, -135.5800
43.099998, 91.674, -136.1369
43.700001, 91.717, -136.6509
44.400002, 91.769, -137.1865
45.000000, 91.820, -137.6371
45.500000, 91.865, -138.0381
46.200001, 91.919, -138.6571
46.799999, 91.955, -139.1895
47.500000, 91.994, -139.7434
48.200001, 92.035, -140.2732
48.700001, 92.065, -140.6559
49.400002, 92.105, -141.1764
50.000000, 92.141, -141.5972
50.799999, 92.195, -142.1772
51.500000, 92.237, -142.7298
52.200001, 92.268, -143.2364
53.000000, 92.306, -143.7161
53.799999, 92.348, -144.2517
54.500000, 92.375, -144.7540
55.200001, 92.393, -145.2549
56.000000, 92.407, -145.8542
57.000000, 92.410, -146.5604
58.000000, 92.419, -147.4000
59.000000, 92.367, -148.3673
60.000000, 92.271, -148.5901
60.799999, 92.277, -148.4175
61.500000, 92.330, -148.4534
62.200001, 92.377, -148.6535
63.000000, 92.422, -148.8792
64.000000, 92.487, -149.1434
65.000000, 92.536, -149.5395
66.000000, 92.590, -149.8696
67.000000, 92.661, -150.3260
68.000000, 92.717, -151.0216
69.000000, 92.756, -151.7199
70.000000, 92.793, -152.3789
71.000000, 92.826, -153.0929
72.000000, 92.834, -153.7762
73.000000, 92.830, -154.2315
74.000000, 92.837, -154.6118
75.000000, 92.841, -155.0455
76.199997, 92.837, -155.5617
77.500000, 92.834, -156.1534
78.800003, 92.828, -156.8517
80.000000, 92.808, -157.6030
81.199997, 92.763, -158.3394
82.500000, 92.684, -158.9281
83.800003, 92.603, -159.1931
85.000000, 92.541, -159.3064
86.199997, 92.485, -159.4304
87.500000, 92.418, -159.4655
88.500000, 92.369, -159.3852
90.000000, 92.325, -159.1336
91.199997, 92.322, -158.8914
92.500000, 92.355, -158.6024
93.800003, 92.417, -158.5156
95.000000, 92.473, -158.7273
96.199997, 92.506, -159.0947
97.500000, 92.507, -159.5281
98.800003, 92.474, -159.8838
100.000000, 92.430, -160.0361
101.500000, 92.386, -159.9476
103.000000, 92.385, -159.6608
104.400002, 92.421, -159.4833
106.000000, 92.465, -159.5396
107.500000, 92.489, -159.6044
109.000000, 92.522, -159.6707
110.599998, 92.538, -159.9426
112.000000, 92.530, -160.0983
113.800003, 92.507, -160.1657
115.000000, 92.489, -160.1186
117.199997, 92.485, -159.8645
118.000000, 92.495, -159.7688
120.599998, 92.557, -159.4780
122.000000, 92.621, -159.4563
124.099998, 92.709, -159.9302
125.000000, 92.733, -160.1768
126.500000, 92.772, -160.4916
128.000000, 92.815, -160.8491
131.500000, 92.897, -161.4334
132.000000, 92.908, -161.5089
134.000000, 92.931, -161.9164
136.000000, 92.923, -162.2847
138.000000, 92.915, -162.6180
140.000000, 92.899, -162.9201
143.000000, 92.865, -163.1237
145.000000, 92.861, -163.1520
147.500000, 92.867, -163.3542
150.000000, 92.864, -163.5197
152.500000, 92.864, -163.6094
155.000000, 92.874, -163.6913
157.500000, 92.897, -163.7974
160.000000, 92.909, -163.9848
162.500000, 92.904, -164.1227
165.000000, 92.896, -164.1822
167.500000, 92.896, -164.2276
170.000000, 92.900, -164.2311
172.500000, 92.905, -164.2062
175.000000, 92.914, -164.2215
177.500000, 92.923, -164.3051
180.000000, 92.933, -164.4797
182.500000, 92.942, -164.6026
185.000000, 92.949, -164.6791
187.500000, 92.960, -164.7143
190.000000, 92.973, -164.8811
192.500000, 92.974, -165.1355
195.000000, 92.960, -165.2748
197.500000, 92.949, -165.3916
200.000000, 92.953, -165.5039
203.000000, 92.960, -165.5942
206.000000, 92.952, -165.5451
209.000000, 92.931, -165.6765
212.000000, 92.905, -165.9043
214.000000, 92.898, -165.9757
218.000000, 92.892, -165.9096
220.000000, 92.884, -165.8570
224.000000, 92.861, -165.8600
227.000000, 92.848, -165.9551
230.000000, 92.837, -166.0418
233.000000, 92.828, -166.0010
236.000000, 92.823, -165.8797
240.000000, 92.810, -165.7416
243.000000, 92.803, -165.7053
247.000000, 92.805, -165.6894
250.000000, 92.799, -165.6343
254.000000, 92.774, -165.4770
258.000000, 92.749, -165.3951
262.000000, 92.741, -165.4617
265.000000, 92.741, -165.4876
269.000000, 92.732, -165.4361
272.000000, 92.723, -165.3476
276.000000, 92.707, -165.2582
280.000000, 92.693, -165.1114
285.000000, 92.704, -164.9091
290.000000, 92.695, -164.8279
295.000000, 92.670, -164.7930
300.000000, 92.656, -164.6618
304.000000, 92.650, -164.4970
307.000000, 92.642, -164.3819
311.000000, 92.632, -164.2259
315.000000, 92.626, -164.0327
320.000000, 92.616, -163.7860
325.000000, 92.606, -163.4917
330.000000, 92.592, -163.1555
335.000000, 92.571, -162.8404
340.000000, 92.567, -162.4669
345.000000, 92.581, -162.0150
350.000000, 92.608, -161.6279
355.000000, 92.639, -161.3537
360.000000, 92.659, -161.1995
365.000000, 92.683, -161.0679
370.000000, 92.698, -160.9530
375.000000, 92.703, -160.7946
382.000000, 92.709, -160.4254
387.000000, 92.718, -160.1773
395.000000, 92.743, -159.8392
400.000000, 92.758, -159.6274
406.000000, 92.771, -159.3995
412.000000, 92.778, -159.2112
418.000000, 92.782, -159.0016
425.000000, 92.789, -158.7868
431.000000, 92.790, -158.5298
437.000000, 92.797, -158.2683
444.000000, 92.807, -157.9522
450.000000, 92.819, -157.7204
455.000000, 92.832, -157.5226
462.000000, 92.846, -157.2614
468.000000, 92.845, -157.0244
475.000000, 92.843, -156.7548
482.000000, 92.847, -156.4758
487.000000, 92.855, -156.2508
494.000000, 92.865, -155.9076
500.000000, 92.875, -155.6418
508.000000, 92.892, -155.3100
515.000000, 92.907, -155.0088
522.000000, 92.927, -154.6703
530.000000, 92.958, -154.2897
538.000000, 92.978, -153.9243
545.000000, 92.993, -153.6075
552.000000, 93.018, -153.2477
560.000000, 93.048, -152.9053
570.000000, 93.070, -152.4625
580.000000, 93.109, -152.0617
590.000000, 93.153, -151.7221
600.000000, 93.187, -151.4076
608.000000, 93.209, -151.1447
615.000000, 93.228, -150.9237
622.000000, 93.249, -150.7033
630.000000, 93.272, -150.4910
640.000000, 93.296, -150.3227
650.000000, 93.314, -150.1733
660.000000, 93.322, -149.9297
670.000000, 93.328, -149.6133
680.000000, 93.330, -149.3859
690.000000, 93.324, -149.2613
700.000000, 93.310, -149.1464
710.000000, 93.282, -148.9880
720.000000, 93.237, -148.6885
730.000000, 93.182, -148.2218
740.000000, 93.120, -147.6432
750.000000, 93.057, -146.9209
762.000000, 92.997, -145.8097
775.000000, 92.991, -144.3300
788.000000, 93.039, -142.9803
800.000000, 93.112, -142.0008
812.000000, 93.199, -141.2204
825.000000, 93.285, -140.4913
838.000000, 93.358, -139.8036
850.000000, 93.417, -139.2485
862.000000, 93.477, -138.7118
875.000000, 93.555, -138.0853
885.000000, 93.613, -137.6320
900.000000, 93.709, -137.0421
912.000000, 93.775, -136.6452
925.000000, 93.829, -136.2437
938.000000, 93.872, -135.7870
950.000000, 93.911, -135.2940
962.000000, 93.953, -134.8112
975.000000, 94.005, -134.3357
988.000000, 94.059, -133.9556
1000.000000, 94.101, -133.5384
1015.000000, 94.153, -133.0945
1030.000000, 94.182, -132.7505
1044.000000, 94.212, -132.2849
1060.000000, 94.236, -131.8270
1075.000000, 94.240, -131.0699
1090.000000, 94.297, -130.1428
1106.000000, 94.416, -129.3550
1120.000000, 94.533, -128.8644
1138.000000, 94.662, -128.4989
1150.000000, 94.729, -128.2987
1172.000000, 94.864, -127.9387
1180.000000, 94.910, -127.9579
1206.000000, 95.000, -127.7222
1220.000000, 95.052, -127.3700
1241.000000, 95.129, -127.0447
1250.000000, 95.157, -126.8747
1265.000000, 95.224, -126.6216
1280.000000, 95.298, -126.5229
1315.000000, 95.406, -126.3901
1320.000000, 95.408, -126.3639
1340.000000, 95.413, -126.1203
1360.000000, 95.420, -125.8640
1380.000000, 95.403, -125.6517
1400.000000, 95.340, -125.3625
1430.000000, 95.275, -123.8025
1450.000000, 95.345, -122.8691
1475.000000, 95.416, -122.2406
1500.000000, 95.434, -121.5126
1525.000000, 95.463, -120.6343
1550.000000, 95.486, -119.7888
1575.000000, 95.485, -118.5381
1600.000000, 95.609, -117.0092
1625.000000, 95.798, -116.4149
1650.000000, 95.884, -116.4609
1675.000000, 95.868, -116.2012
1700.000000, 95.854, -115.4872
1725.000000, 95.878, -114.7186
1750.000000, 95.875, -113.9215
1775.000000, 95.908, -112.8594
1800.000000, 95.967, -112.3483
1825.000000, 95.917, -111.8221
1850.000000, 95.898, -110.2896
1875.000000, 96.018, -109.0663
1900.000000, 96.082, -108.6166
1925.000000, 96.107, -107.8993
1950.000000, 96.158, -107.1444
1975.000000, 96.183, -106.5337
2000.000000, 96.165, -105.8310
2030.000000, 96.096, -104.7057
2060.000000, 96.015, -102.8933
2090.000000, 96.016, -100.5454
2120.000000, 96.115, -97.9993
2140.000000, 96.271, -96.3486
2180.000000, 96.639, -94.5031
2200.000000, 96.765, -93.8035
2240.000000, 97.026, -92.0646
2270.000000, 97.267, -90.9913
2300.000000, 97.543, -89.9994
2330.000000, 97.834, -89.6493
2360.000000, 98.021, -89.8728
2400.000000, 98.145, -89.6231
2430.000000, 98.265, -88.8697
2470.000000, 98.514, -87.9040
2500.000000, 98.742, -87.4802
2540.000000, 99.044, -87.6196
2580.000000, 99.280, -88.2075
2620.000000, 99.402, -89.1085
2650.000000, 99.401, -89.3884
2690.000000, 99.429, -88.9644
2720.000000, 99.521, -88.5533
2760.000000, 99.692, -88.3625
2800.000000, 99.847, -88.6710
2850.000000, 99.926, -89.2492
2900.000000, 99.977, -89.1238
2950.000000, 100.130, -88.8626
3000.000000, 100.303, -89.7069
3040.000000, 100.317, -90.5019
3070.000000, 100.319, -90.7539
3110.000000, 100.365, -91.0520
3150.000000, 100.416, -91.7092
3200.000000, 100.417, -92.8522
3250.000000, 100.345, -93.8875
3300.000000, 100.254, -94.7747
3350.000000, 100.127, -95.8478
3400.000000, 99.925, -96.7234
3450.000000, 99.705, -97.2832
3500.000000, 99.483, -97.7199
3550.000000, 99.223, -98.3142
3600.000000, 98.875, -98.5011
3650.000000, 98.536, -98.0945
3700.000000, 98.234, -97.4504
3750.000000, 97.947, -96.9009
3820.000000, 97.487, -96.0360
3870.000000, 97.140, -95.1418
3950.000000, 96.569, -93.5710
4000.000000, 96.147, -92.6062
4060.000000, 95.551, -90.6392
4120.000000, 94.965, -87.7327
4180.000000, 94.395, -84.3889
4250.000000, 93.705, -79.2748
4310.000000, 93.189, -73.7604
4370.000000, 92.768, -67.1421
4440.000000, 92.592, -57.8953
4500.000000, 92.764, -50.5359
4550.000000, 93.013, -44.9167
4620.000000, 93.607, -37.4894
4680.000000, 94.319, -32.6158
4750.000000, 95.197, -29.1184
4820.000000, 96.004, -27.4257
4870.000000, 96.504, -27.2044
4940.000000, 96.996, -27.9155
5000.000000, 97.214, -28.4630
5080.000000, 97.377, -28.4567
5150.000000, 97.463, -27.8066
5220.000000, 97.564, -26.6904
5300.000000, 97.703, -24.9254
5380.000000, 97.984, -22.8870
5450.000000, 98.310, -21.5697
5520.000000, 98.701, -20.6640
5600.000000, 99.206, -20.5372
5700.000000, 99.848, -21.9377
5800.000000, 100.396, -25.4307
5900.000000, 100.674, -30.7900
6000.000000, 100.563, -37.2422
6080.000000, 100.125, -42.4047
6150.000000, 99.507, -46.1484
6220.000000, 98.729, -48.8328
6300.000000, 97.730, -50.3494
6400.000000, 96.450, -50.1372
6500.000000, 95.231, -47.9479
6600.000000, 94.146, -44.3875
6700.000000, 93.202, -40.1425
6800.000000, 92.363, -35.5949
6900.000000, 91.594, -30.7700
7000.000000, 90.868, -25.3679
7100.000000, 90.212, -19.0434
7200.000000, 89.690, -12.0317
7300.000000, 89.319, -4.6628
7400.000000, 89.097, 2.7038
7500.000000, 89.001, 9.8786
7620.000000, 89.047, 18.1912
7750.000000, 89.289, 26.6162
7880.000000, 89.627, 34.0839
8000.000000, 89.993, 39.7252
8120.000000, 90.356, 44.0758
8250.000000, 90.656, 47.4639
8380.000000, 90.780, 50.0867
8500.000000, 90.726, 52.5791
8620.000000, 90.561, 55.7426
8750.000000, 90.380, 60.4270
8850.000000, 90.378, 64.7139
9000.000000, 90.736, 70.2350
9120.000000, 91.177, 72.0597
9250.000000, 91.433, 71.0188
9380.000000, 91.188, 68.6878
9500.000000, 90.535, 67.3715
9620.000000, 89.635, 67.8374
9750.000000, 88.567, 70.3625
9880.000000, 87.502, 74.5442
10000.000000, 86.548, 79.4874
10150.000000, 85.364, 87.0479
10300.000000, 84.201, 96.5699
10440.000000, 83.211, 107.6794
10600.000000, 82.381, 123.2571
10750.000000, 82.128, 139.9786
10900.000000, 82.541, 157.0767
11060.000000, 83.701, 173.3497
11200.000000, 85.180, -175.6223
11380.000000, 87.344, -167.7231
11500.000000, 88.618, -166.6552
11720.000000, 89.936, -170.0613
11800.000000, 90.038, -171.4722
12060.000000, 89.570, -170.8641
12200.000000, 89.295, -166.7072
12410.000000, 89.413, -157.7072
12500.000000, 89.727, -153.8304
12650.000000, 90.563, -148.8956
12800.000000, 91.602, -147.0639
13150.000000, 93.196, -155.6229
13200.000000, 93.199, -157.7086
13400.000000, 92.537, -165.4539
13600.000000, 91.077, -169.0726
13800.000000, 89.450, -167.1325
14000.000000, 88.216, -161.3323
14300.000000, 87.415, -151.7658
14500.000000, 87.398, -147.4351
14750.000000, 87.779, -146.0640
15000.000000, 88.384, -151.4634
15250.000000, 88.720, -165.2820
15500.000000, 88.263, 173.2280
15750.000000, 86.824, 147.0987
16000.000000, 84.822, 120.3512
16250.000000, 83.136, 97.4210
16500.000000, 82.389, 81.4436
16750.000000, 82.516, 71.8759
17000.000000, 83.102, 66.0937
17250.000000, 83.849, 61.4307
17500.000000, 84.328, 55.3733
17750.000000, 83.905, 48.9016
18000.000000, 82.454, 46.4379
18250.000000, 80.390, 51.8329
18500.000000, 78.509, 67.9353
18750.000000, 78.024, 91.3678
19000.000000, 78.934, 111.0583
19250.000000, 80.245, 124.5243
19500.000000, 81.496, 133.9872
19750.000000, 82.570, 140.7375
20000.000000, 83.362, 145.4813
20300.000000, 83.937, 149.1207
20600.000000, 84.061, 151.7761
20900.000000, 83.686, 155.3913
21200.000000, 83.016, 161.7538
21400.000000, 82.580, 167.5157
21800.000000, 81.970, -179.1563
22000.000000, 81.776, -172.4618
22400.000000, 81.312, -159.6721
22700.000000, 80.775, -149.4120
23000.000000, 80.195, -137.4497
23300.000000, 79.830, -124.1605
23600.000000, 79.510, -111.8359
24000.000000, 78.923, -90.6720
