* Measurement data measured by REW V5.30.2
* Source: Headset (JA3 HIFI AUDIO(CX31993)), no input selected, L, volume: no control
* Format: 512k Log Swept Sine, 1 sweep at -12.0 dBFS with no timing reference
* Dated: Feb 15, 2024 6:30:37 PM
* REW Settings:
*  C-weighting compensation: Off
*  Target level: 75.0 dB
* Note: ; 
* Measurement: Moondrop Blessing 2 R
* Smoothing: 1/24 octave
* Frequency Step: 1/48 octave
* Start Frequency: 1.000 Hz
*
* Freq(Hz) SPL(dB) Phase(degrees)
1.000000 58.316 -142.1751
1.015000 58.653 -143.1477
1.030000 58.984 -144.1132
1.044000 59.288 -145.0104
1.060000 59.627 -146.0332
1.075000 59.937 -146.9919
1.090000 60.239 -147.9508
1.106000 60.552 -148.9675
1.120000 60.821 -149.8388
1.138000 61.160 -150.9255
1.150000 61.383 -151.6293
1.172000 61.785 -152.8796
1.180000 61.929 -153.3223
1.206000 62.390 -154.7214
1.220000 62.633 -155.4518
1.241000 62.992 -156.5210
1.250000 63.144 -156.9705
1.265000 63.395 -157.7092
1.280000 63.642 -158.4360
1.315000 64.208 -160.0941
1.320000 64.287 -160.3273
1.340000 64.602 -161.2530
1.360000 64.912 -162.1693
1.380000 65.218 -163.0786
1.400000 65.521 -163.9834
1.430000 65.967 -165.3371
1.450000 66.260 -166.2394
1.475000 66.621 -167.3623
1.500000 66.974 -168.4617
1.525000 67.319 -169.5308
1.550000 67.656 -170.5728
1.575000 67.985 -171.5916
1.600000 68.307 -172.5916
1.625000 68.621 -173.5765
1.650000 68.929 -174.5502
1.675000 69.232 -175.5163
1.700000 69.528 -176.4783
1.725000 69.820 -177.4393
1.750000 70.106 -178.4024
1.775000 70.388 -179.3705
1.800000 70.666 179.6538
1.825000 70.941 178.6691
1.850000 71.211 177.6781
1.875000 71.475 176.6874
1.900000 71.733 175.7011
1.925000 71.986 174.7211
1.950000 72.234 173.7487
1.975000 72.476 172.7847
2.000000 72.714 171.8293
2.030000 72.993 170.6945
2.060000 73.266 169.5717
2.090000 73.533 168.4599
2.120000 73.795 167.3578
2.140000 73.967 166.6275
2.180000 74.305 165.1749
2.200000 74.470 164.4505
2.240000 74.795 163.0006
2.270000 75.031 161.9130
2.300000 75.261 160.8286
2.330000 75.485 159.7504
2.360000 75.704 158.6808
2.400000 75.988 157.2710
2.430000 76.196 156.2274
2.470000 76.466 154.8557
2.500000 76.664 153.8419
2.540000 76.923 152.5093
2.580000 77.175 151.1915
2.620000 77.418 149.8752
2.650000 77.596 148.8876
2.690000 77.826 147.5754
2.720000 77.993 146.5981
2.760000 78.210 145.3085
2.800000 78.421 144.0387
2.850000 78.676 142.4846
2.900000 78.923 140.9715
2.950000 79.162 139.4926
3.000000 79.392 138.0250
3.040000 79.568 136.8557
3.070000 79.697 135.9842
3.110000 79.864 134.8337
3.150000 80.026 133.7002
3.200000 80.222 132.3135
3.250000 80.412 130.9664
3.300000 80.597 129.6596
3.350000 80.775 128.3792
3.400000 80.946 127.1135
3.450000 81.111 125.8647
3.500000 81.269 124.6379
3.550000 81.423 123.4383
3.600000 81.572 122.2707
3.650000 81.718 121.1379
3.700000 81.861 120.0353
3.750000 81.998 118.9542
3.820000 82.184 117.4723
3.870000 82.312 116.4380
3.950000 82.510 114.8295
4.000000 82.632 113.8557
4.060000 82.775 112.7190
4.120000 82.915 111.6119
4.180000 83.051 110.5301
4.250000 83.206 109.2967
4.310000 83.336 108.2620
4.370000 83.465 107.2469
4.440000 83.612 106.0864
4.500000 83.737 105.1117
4.550000 83.839 104.3118
4.620000 83.980 103.2077
4.680000 84.098 102.2733
4.750000 84.234 101.1936
4.820000 84.367 100.1237
4.870000 84.461 99.3655
4.940000 84.590 98.3124
5.000000 84.698 97.4172
5.080000 84.839 96.2332
5.150000 84.957 95.2031
5.220000 85.073 94.1752
5.300000 85.200 93.0045
5.380000 85.323 91.8442
5.450000 85.425 90.8412
5.520000 85.523 89.8488
5.600000 85.630 88.7205
5.700000 85.756 87.3227
5.800000 85.872 85.9561
5.900000 85.981 84.6298
6.000000 86.080 83.3323
6.080000 86.154 82.3172
6.150000 86.214 81.4526
6.220000 86.272 80.6147
6.300000 86.335 79.6879
6.400000 86.407 78.5685
6.500000 86.475 77.4948
6.600000 86.540 76.4724
6.700000 86.603 75.5027
6.800000 86.664 74.5789
6.900000 86.725 73.6937
7.000000 86.786 72.8447
7.100000 86.848 72.0330
7.200000 86.912 71.2502
7.300000 86.976 70.4840
7.400000 87.043 69.7303
7.500000 87.111 68.9904
7.620000 87.194 68.1097
7.750000 87.284 67.1496
7.880000 87.375 66.1831
8.000000 87.457 65.2847
8.120000 87.536 64.3758
8.250000 87.619 63.3795
8.380000 87.696 62.3795
8.500000 87.763 61.4568
8.620000 87.825 60.5341
8.750000 87.886 59.5429
8.850000 87.930 58.7907
9.000000 87.990 57.6775
9.120000 88.034 56.8020
9.250000 88.078 55.8712
9.380000 88.118 54.9565
9.500000 88.152 54.1237
9.620000 88.184 53.3002
9.750000 88.215 52.4176
9.880000 88.243 51.5435
10.000000 88.264 50.7421
10.150000 88.285 49.7515
10.300000 88.297 48.7835
10.440000 88.300 47.9030
10.600000 88.294 46.9449
10.750000 88.279 46.1107
10.900000 88.257 45.3488
11.060000 88.229 44.6413
11.200000 88.202 44.1169
11.380000 88.172 43.5726
11.500000 88.159 43.2922
11.720000 88.154 42.9045
11.800000 88.161 42.7916
12.060000 88.218 42.4579
12.200000 88.269 42.2421
12.410000 88.370 41.8151
12.500000 88.418 41.5748
12.650000 88.502 41.0918
12.800000 88.585 40.5079
13.150000 88.748 38.7940
13.200000 88.766 38.5227
13.400000 88.819 37.4019
13.600000 88.846 36.2896
13.800000 88.848 35.2459
14.000000 88.833 34.3226
14.300000 88.798 33.2072
14.500000 88.781 32.6335
14.750000 88.777 32.0386
15.000000 88.796 31.4955
15.250000 88.832 30.9129
15.500000 88.874 30.2498
15.750000 88.910 29.5121
16.000000 88.930 28.7467
16.250000 88.935 28.0194
16.500000 88.930 27.3796
16.750000 88.923 26.8516
17.000000 88.923 26.4163
17.250000 88.936 26.0297
17.500000 88.961 25.6382
17.750000 88.992 25.2015
18.000000 89.024 24.7086
18.250000 89.048 24.1726
18.500000 89.063 23.6255
18.750000 89.070 23.0969
19.000000 89.072 22.6045
19.250000 89.073 22.1465
19.500000 89.075 21.7061
19.750000 89.079 21.2639
20.000000 89.081 20.8082
20.299999 89.076 20.2516
20.600000 89.060 19.7179
20.900000 89.036 19.2491
21.200001 89.012 18.8687
21.400000 89.000 18.6584
21.799999 88.993 18.2866
22.000000 88.998 18.0944
22.400000 89.018 17.6464
22.700001 89.035 17.2512
23.000000 89.051 16.8239
23.299999 89.067 16.3793
23.600000 89.085 15.9139
24.000000 89.113 15.2234
24.299999 89.130 14.6311
24.700001 89.134 13.7695
25.000000 89.117 13.1359
25.400000 89.072 12.4296
25.799999 89.023 11.9554
26.200001 88.994 11.6673
26.500000 88.992 11.4889
26.900000 89.007 11.2007
27.200001 89.021 10.9265
27.600000 89.036 10.5203
28.000000 89.046 10.1212
28.500000 89.062 9.6323
29.000000 89.081 9.0678
29.500000 89.080 8.4232
30.000000 89.048 7.8589
30.400000 89.016 7.5636
30.700001 88.999 7.4217
31.100000 88.996 7.2541
31.500000 89.007 7.0110
32.000000 89.016 6.5554
32.500000 89.000 6.0505
33.000000 88.970 5.6532
33.500000 88.949 5.3767
34.000000 88.947 5.0996
34.500000 88.952 4.7220
35.000000 88.947 4.2667
35.500000 88.927 3.8306
36.000000 88.904 3.4745
36.500000 88.887 3.1740
37.000000 88.878 2.8677
37.500000 88.869 2.5320
38.200001 88.848 2.0707
38.700001 88.833 1.7772
39.500000 88.814 1.3093
40.000000 88.798 1.0035
40.599998 88.773 0.6775
41.200001 88.753 0.4226
41.799999 88.745 0.1766
42.500000 88.744 -0.2041
43.099998 88.735 -0.6099
43.700001 88.712 -1.0115
44.400002 88.679 -1.3885
45.000000 88.657 -1.6613
45.500000 88.643 -1.9048
46.200001 88.617 -2.2468
46.799999 88.594 -2.4559
47.500000 88.590 -2.6746
48.200001 88.593 -3.0583
48.700001 88.579 -3.3728
49.400002 88.549 -3.6733
50.000000 88.545 -3.8855
50.799999 88.542 -4.4544
51.500000 88.479 -4.9845
52.200001 88.401 -5.1121
53.000000 88.381 -5.1062
53.799999 88.380 -5.5226
54.500000 88.332 -5.9784
55.200001 88.274 -6.1692
56.000000 88.255 -6.2562
57.000000 88.272 -6.6937
58.000000 88.261 -7.3790
59.000000 88.215 -7.8861
60.000000 88.173 -8.0214
60.799999 88.173 -7.9305
61.500000 88.205 -7.8990
62.200001 88.246 -8.0806
63.000000 88.264 -8.5322
64.000000 88.221 -9.1158
65.000000 88.143 -9.5209
66.000000 88.054 -9.7845
67.000000 87.977 -9.9112
68.000000 87.933 -10.0596
69.000000 87.905 -10.3394
70.000000 87.882 -10.6834
71.000000 87.858 -11.0480
72.000000 87.826 -11.3546
73.000000 87.795 -11.5336
74.000000 87.774 -11.6477
75.000000 87.755 -11.7555
76.199997 87.740 -11.8658
77.500000 87.732 -12.1938
78.800003 87.684 -12.6663
80.000000 87.623 -12.9620
81.199997 87.572 -13.1564
82.500000 87.537 -13.3865
83.800003 87.502 -13.6783
85.000000 87.464 -13.8849
86.199997 87.430 -14.0486
87.500000 87.392 -14.2244
88.500000 87.360 -14.3690
90.000000 87.309 -14.5898
91.199997 87.271 -14.8041
92.500000 87.228 -15.0671
93.800003 87.187 -15.2900
95.000000 87.152 -15.4652
96.199997 87.120 -15.6163
97.500000 87.084 -15.8009
98.800003 87.042 -15.9921
100.000000 87.002 -16.1663
101.500000 86.955 -16.3865
103.000000 86.912 -16.5899
104.400002 86.872 -16.7397
106.000000 86.824 -16.8438
107.500000 86.779 -16.9357
109.000000 86.733 -17.0976
110.599998 86.683 -17.3434
112.000000 86.637 -17.5389
113.800003 86.582 -17.6914
115.000000 86.543 -17.7474
117.199997 86.462 -17.7106
118.000000 86.442 -17.6870
120.599998 86.380 -18.0504
122.000000 86.335 -18.2516
124.099998 86.284 -18.4154
125.000000 86.264 -18.4878
126.500000 86.227 -18.6187
128.000000 86.183 -18.7626
131.500000 86.077 -18.9800
132.000000 86.064 -19.0051
134.000000 86.012 -19.0892
136.000000 85.952 -19.1733
138.000000 85.892 -19.2628
140.000000 85.835 -19.3986
143.000000 85.755 -19.5559
145.000000 85.701 -19.5734
147.500000 85.626 -19.6536
150.000000 85.552 -19.6554
152.500000 85.497 -19.7577
155.000000 85.409 -19.9171
157.500000 85.325 -19.7513
160.000000 85.277 -19.7454
162.500000 85.215 -19.8370
165.000000 85.155 -19.7729
167.500000 85.095 -19.6562
170.000000 85.020 -19.4597
172.500000 84.944 -19.2131
175.000000 84.895 -19.1645
177.500000 84.862 -19.2374
180.000000 84.823 -19.1760
182.500000 84.762 -18.9862
185.000000 84.698 -18.8988
187.500000 84.662 -18.9924
190.000000 84.641 -19.1255
192.500000 84.601 -19.0842
195.000000 84.556 -18.9420
197.500000 84.511 -18.8878
200.000000 84.480 -18.7692
203.000000 84.428 -18.7250
206.000000 84.393 -18.5566
209.000000 84.375 -18.7854
212.000000 84.318 -19.0310
214.000000 84.273 -19.0873
218.000000 84.204 -18.9465
220.000000 84.177 -18.7827
224.000000 84.094 -18.4319
227.000000 84.009 -18.2455
230.000000 83.937 -18.1732
233.000000 83.877 -18.1311
236.000000 83.825 -17.9953
240.000000 83.772 -17.7927
243.000000 83.734 -17.6827
247.000000 83.668 -17.4732
250.000000 83.612 -17.3257
254.000000 83.549 -17.2026
258.000000 83.501 -17.0085
262.000000 83.439 -16.7631
265.000000 83.391 -16.6606
269.000000 83.332 -16.4883
272.000000 83.288 -16.3062
276.000000 83.234 -16.1401
280.000000 83.181 -15.9618
285.000000 83.111 -15.6484
290.000000 83.045 -15.3665
295.000000 82.989 -15.0884
300.000000 82.934 -14.8221
304.000000 82.882 -14.6260
307.000000 82.846 -14.4576
311.000000 82.801 -14.2045
315.000000 82.752 -13.9343
320.000000 82.694 -13.6143
325.000000 82.642 -13.2832
330.000000 82.590 -12.9678
335.000000 82.547 -12.6912
340.000000 82.501 -12.4329
345.000000 82.447 -12.1259
350.000000 82.397 -11.8301
355.000000 82.353 -11.5319
360.000000 82.308 -11.2366
365.000000 82.262 -10.9633
370.000000 82.219 -10.6567
375.000000 82.175 -10.3248
382.000000 82.117 -9.8834
387.000000 82.077 -9.5675
395.000000 82.010 -9.1076
400.000000 81.971 -8.7762
406.000000 81.927 -8.3188
412.000000 81.881 -7.8630
418.000000 81.837 -7.4614
425.000000 81.790 -6.9705
431.000000 81.752 -6.4855
437.000000 81.717 -6.0590
444.000000 81.671 -5.5979
450.000000 81.638 -5.1750
455.000000 81.613 -4.7891
462.000000 81.579 -4.1995
468.000000 81.554 -3.7455
475.000000 81.527 -3.2118
482.000000 81.510 -2.6891
487.000000 81.504 -2.3740
494.000000 81.491 -1.9211
500.000000 81.472 -1.5086
508.000000 81.441 -1.0291
515.000000 81.410 -0.5884
522.000000 81.404 -0.1244
530.000000 81.392 0.3140
538.000000 81.365 0.8332
545.000000 81.339 1.3425
552.000000 81.308 1.7501
560.000000 81.288 2.1263
570.000000 81.269 2.7820
580.000000 81.240 3.4346
590.000000 81.218 4.0366
600.000000 81.184 4.6521
608.000000 81.158 5.2258
615.000000 81.151 5.6791
622.000000 81.150 6.1298
630.000000 81.143 6.6505
640.000000 81.121 7.2909
650.000000 81.101 7.9601
660.000000 81.083 8.6320
670.000000 81.065 9.3006
680.000000 81.057 10.0095
690.000000 81.057 10.7471
700.000000 81.048 11.4351
710.000000 81.040 12.0705
720.000000 81.036 12.7095
730.000000 81.019 13.3123
740.000000 80.999 14.0948
750.000000 81.015 14.8842
762.000000 81.048 15.7012
775.000000 81.071 16.7072
788.000000 81.083 17.6329
800.000000 81.084 18.5265
812.000000 81.115 19.6036
825.000000 81.156 20.4813
838.000000 81.189 21.3495
850.000000 81.230 22.2183
862.000000 81.275 23.0967
875.000000 81.334 24.0290
885.000000 81.381 24.7375
900.000000 81.453 25.8060
912.000000 81.515 26.6602
925.000000 81.589 27.5641
938.000000 81.671 28.4436
950.000000 81.752 29.2307
962.000000 81.835 30.0019
975.000000 81.929 30.8259
988.000000 82.029 31.6169
1000.000000 82.129 32.3228
1015.000000 82.258 33.1453
1030.000000 82.389 33.9312
1044.000000 82.513 34.6427
1060.000000 82.661 35.3876
1075.000000 82.807 36.0153
1090.000000 82.955 36.6031
1106.000000 83.118 37.1665
1120.000000 83.262 37.5924
1138.000000 83.452 38.0554
1150.000000 83.580 38.3005
1172.000000 83.812 38.7143
1180.000000 83.892 38.8245
1206.000000 84.137 38.9778
1220.000000 84.263 39.0291
1241.000000 84.449 39.0204
1250.000000 84.525 38.9751
1265.000000 84.648 38.8679
1280.000000 84.765 38.7442
1315.000000 85.008 38.4047
1320.000000 85.039 38.3511
1340.000000 85.155 38.1413
1360.000000 85.262 37.9330
1380.000000 85.362 37.7307
1400.000000 85.455 37.5613
1430.000000 85.578 37.3690
1450.000000 85.652 37.2567
1475.000000 85.744 37.1292
1500.000000 85.835 37.0318
1525.000000 85.916 36.9891
1550.000000 85.993 36.9960
1575.000000 86.070 37.0236
1600.000000 86.153 37.0625
1625.000000 86.242 37.1127
1650.000000 86.331 37.1768
1675.000000 86.417 37.2510
1700.000000 86.501 37.3313
1725.000000 86.586 37.4109
1750.000000 86.673 37.4977
1775.000000 86.764 37.5884
1800.000000 86.856 37.6871
1825.000000 86.951 37.7860
1850.000000 87.050 37.8766
1875.000000 87.151 37.9636
1900.000000 87.253 38.0407
1925.000000 87.355 38.1110
1950.000000 87.459 38.1628
1975.000000 87.567 38.1884
2000.000000 87.677 38.1931
2030.000000 87.810 38.1777
2060.000000 87.945 38.1333
2090.000000 88.083 38.0579
2120.000000 88.221 37.9568
2140.000000 88.313 37.8694
2180.000000 88.500 37.6497
2200.000000 88.594 37.5151
2240.000000 88.783 37.1945
2270.000000 88.927 36.9038
2300.000000 89.070 36.5704
2330.000000 89.211 36.1957
2360.000000 89.348 35.7770
2400.000000 89.527 35.1523
2430.000000 89.658 34.6274
2470.000000 89.829 33.8591
2500.000000 89.953 33.2334
2540.000000 90.112 32.3312
2580.000000 90.262 31.3475
2620.000000 90.400 30.2995
2650.000000 90.493 29.4693
2690.000000 90.603 28.3168
2720.000000 90.676 27.4207
2760.000000 90.759 26.1847
2800.000000 90.828 24.9189
2850.000000 90.894 23.3046
2900.000000 90.933 21.6873
2950.000000 90.941 20.1031
3000.000000 90.916 18.5824
3040.000000 90.880 17.4258
3070.000000 90.845 16.6033
3110.000000 90.790 15.5760
3150.000000 90.727 14.6440
3200.000000 90.642 13.6053
3250.000000 90.556 12.6818
3300.000000 90.474 11.8114
3350.000000 90.393 10.9371
3400.000000 90.304 10.0480
3450.000000 90.200 9.1819
3500.000000 90.077 8.4064
3550.000000 89.939 7.7640
3600.000000 89.797 7.2519
3650.000000 89.656 6.8627
3700.000000 89.514 6.6033
3750.000000 89.375 6.4667
3820.000000 89.196 6.4388
3870.000000 89.083 6.5074
3950.000000 88.925 6.7255
4000.000000 88.836 6.9100
4060.000000 88.737 7.1592
4120.000000 88.647 7.4232
4180.000000 88.568 7.6896
4250.000000 88.487 8.0013
4310.000000 88.424 8.2815
4370.000000 88.363 8.5769
4440.000000 88.292 8.9498
4500.000000 88.233 9.2932
4550.000000 88.187 9.5958
4620.000000 88.129 10.0486
4680.000000 88.083 10.4750
4750.000000 88.035 11.0247
4820.000000 87.998 11.6318
4870.000000 87.978 12.1017
4940.000000 87.961 12.8150
5000.000000 87.956 13.4800
5080.000000 87.971 14.4389
5150.000000 88.010 15.3410
5220.000000 88.082 16.2770
5300.000000 88.212 17.3463
5380.000000 88.400 18.3430
5450.000000 88.616 19.0707
5520.000000 88.885 19.5541
5600.000000 89.260 19.6160
5700.000000 89.806 18.5361
5800.000000 90.339 15.6788
5900.000000 90.681 10.9908
6000.000000 90.654 5.3882
6080.000000 90.335 1.3098
6150.000000 89.889 -1.3289
6220.000000 89.360 -2.8589
6300.000000 88.743 -3.2737
6400.000000 88.060 -2.2051
6500.000000 87.537 -0.0076
6600.000000 87.185 2.7664
6700.000000 86.992 5.7413
6800.000000 86.938 8.6897
6900.000000 87.002 11.4833
7000.000000 87.173 14.0272
7100.000000 87.443 16.2269
7200.000000 87.804 17.9567
7300.000000 88.235 19.1321
7400.000000 88.730 19.8235
7500.000000 89.311 19.8763
7620.000000 90.094 18.5803
7750.000000 90.957 15.1530
7880.000000 91.715 9.4625
8000.000000 92.184 2.3758
8120.000000 92.308 -5.8077
8250.000000 91.999 -14.7148
8380.000000 91.283 -22.4061
8500.000000 90.388 -27.7496
8620.000000 89.402 -31.2908
8750.000000 88.344 -33.3594
8850.000000 87.584 -33.9780
9000.000000 86.563 -33.8208
9120.000000 85.853 -33.0895
9250.000000 85.182 -31.9640
9380.000000 84.597 -30.6779
9500.000000 84.117 -29.4653
9620.000000 83.678 -28.3016
9750.000000 83.234 -27.1104
9880.000000 82.808 -25.9620
10000.000000 82.426 -24.9258
10150.000000 81.955 -23.6388
10300.000000 81.481 -22.2878
10440.000000 81.040 -20.8862
10600.000000 80.543 -19.0617
10750.000000 80.094 -17.1262
10900.000000 79.670 -14.9838
11060.000000 79.258 -12.4886
11200.000000 78.938 -10.1689
11380.000000 78.580 -7.1141
11500.000000 78.366 -5.0696
11720.000000 78.026 -1.1515
11800.000000 77.932 0.3377
12060.000000 77.755 5.0549
12200.000000 77.746 7.4709
12410.000000 77.842 10.4158
12500.000000 77.902 11.3652
12650.000000 78.000 12.6484
12800.000000 78.095 13.6600
13150.000000 78.337 15.1375
13200.000000 78.372 15.2385
13400.000000 78.500 15.3311
13600.000000 78.592 14.9254
13800.000000 78.630 14.1475
14000.000000 78.603 13.2405
14300.000000 78.460 12.2394
14500.000000 78.400 12.0818
14750.000000 78.504 10.9697
15000.000000 78.456 7.8472
15250.000000 78.121 4.3461
15500.000000 77.512 1.3276
15750.000000 76.696 -0.3414
16000.000000 75.809 -0.1892
16250.000000 74.981 1.6871
16500.000000 74.295 4.8821
16750.000000 73.805 8.9881
17000.000000 73.567 13.6544
17250.000000 73.654 18.4052
17500.000000 74.123 22.3365
17750.000000 74.896 24.0343
18000.000000 75.700 23.0262
18250.000000 76.448 21.0497
18500.000000 77.438 18.4889
18750.000000 78.638 12.5113
19000.000000 79.427 2.2754
19250.000000 79.466 -8.8289
19500.000000 78.968 -17.9796
19750.000000 78.204 -24.9535
20000.000000 77.239 -30.6421
20300.000000 75.718 -36.7324
20600.000000 73.670 -42.5687
20900.000000 70.988 -48.6675
21200.000000 67.582 -55.5541
21400.000000 64.878 -60.8977
21800.000000 58.303 -73.9337
22000.000000 54.372 -81.4368
22400.000000 45.173 -97.2181
22700.000000 37.220 -107.8531
23000.000000 29.032 -111.6307
23300.000000 25.370 -95.1923
23600.000000 30.134 -94.0825
24000.000000 35.236 -109.4329
