* Measurement data measured by REW V5.30.2
* Source: Headset (USB-C to 3.5mm Headphone Jack Adapter), MICROPHONE (Master Volume), L, volume: 0.250
* Format: 512k Log Swept Sine, 1 sweep at -12.0 dBFS with no timing reference
* Dated: Feb 6, 2024 1:07:03 PM
* REW Settings:
*  C-weighting compensation: Off
*  Target level: 75.0 dB
* Note: ; 
* Measurement: QKZ HBB R
* Smoothing: 1/24 octave
* Frequency Step: 1/48 octave
* Start Frequency: 20.300 Hz
*
* Freq(Hz) SPL(dB) Phase(degrees)
20.299999 97.198 -97.7856
20.600000 97.291 -98.8679
20.900000 97.434 -99.9336
21.200001 97.615 -100.9114
21.400000 97.743 -101.5304
21.799999 97.979 -102.7293
22.000000 98.073 -103.3189
22.400000 98.205 -104.4869
22.700001 98.269 -105.3608
23.000000 98.325 -106.2487
23.299999 98.394 -107.1696
23.600000 98.481 -108.1370
24.000000 98.608 -109.5024
24.299999 98.691 -110.5754
24.700001 98.764 -112.0581
25.000000 98.798 -113.1967
25.400000 98.848 -114.6998
25.799999 98.943 -116.0750
26.200001 99.079 -117.1999
26.500000 99.178 -117.8676
26.900000 99.262 -118.6334
27.200001 99.277 -119.2407
27.600000 99.264 -120.2478
28.000000 99.283 -121.4733
28.500000 99.435 -122.9445
29.000000 99.676 -123.8855
29.500000 99.850 -124.3424
30.000000 99.871 -124.8077
30.400000 99.814 -125.4349
30.700001 99.770 -126.0487
31.100000 99.746 -126.9486
31.500000 99.768 -127.8600
32.000000 99.820 -129.0991
32.500000 99.865 -130.6241
33.000000 99.901 -132.3255
33.500000 99.939 -133.8089
34.000000 99.971 -134.8699
34.500000 99.997 -135.7168
35.000000 100.038 -136.6598
35.500000 100.106 -137.7341
36.000000 100.179 -138.7550
36.500000 100.222 -139.6171
37.000000 100.235 -140.3953
37.500000 100.248 -141.2051
38.200001 100.304 -142.4443
38.700001 100.339 -143.3628
39.500000 100.330 -144.7502
40.000000 100.312 -145.4844
40.599998 100.331 -146.2745
41.200001 100.383 -147.1272
41.799999 100.414 -148.0742
42.500000 100.393 -149.1391
43.099998 100.375 -150.0091
43.700001 100.402 -150.9294
44.400002 100.473 -151.9943
45.000000 100.509 -152.7663
45.500000 100.500 -153.3167
46.200001 100.444 -154.0368
46.799999 100.407 -154.6744
47.500000 100.415 -155.5812
48.200001 100.441 -156.6882
48.700001 100.438 -157.4185
49.400002 100.413 -158.1437
50.000000 100.408 -158.6486
50.799999 100.414 -159.5729
51.500000 100.392 -160.4590
52.200001 100.365 -161.1631
53.000000 100.364 -162.0105
53.799999 100.361 -163.0106
54.500000 100.350 -163.6867
55.200001 100.352 -164.2052
56.000000 100.348 -164.9951
57.000000 100.312 -166.0926
58.000000 100.290 -166.8505
59.000000 100.252 -167.6511
60.000000 100.213 -168.4122
60.799999 100.217 -169.0746
61.500000 100.211 -169.8290
62.200001 100.195 -170.5249
63.000000 100.204 -171.0898
64.000000 100.239 -171.8220
65.000000 100.203 -172.3889
66.000000 100.050 -172.6871
67.000000 99.939 -173.8196
68.000000 100.016 -175.3106
69.000000 100.050 -176.0214
70.000000 99.961 -176.3708
71.000000 99.901 -176.9142
72.000000 99.919 -177.3973
73.000000 99.929 -177.8695
74.000000 99.871 -178.6464
75.000000 99.814 -179.2924
76.199997 99.745 -179.5340
77.500000 99.784 -178.9036
78.800003 99.743 179.9507
80.000000 99.609 178.5015
81.199997 99.541 177.8268
82.500000 99.466 177.1083
83.800003 99.421 176.5273
85.000000 99.377 175.9118
86.199997 99.338 175.3633
87.500000 99.310 174.8101
88.500000 99.303 174.5974
90.000000 99.300 174.4328
91.199997 99.224 173.6755
92.500000 99.132 172.9274
93.800003 99.054 172.4515
95.000000 99.005 172.0326
96.199997 98.953 171.6456
97.500000 98.871 171.1074
98.800003 98.815 170.7635
100.000000 98.792 170.6854
101.500000 98.727 170.1631
103.000000 98.665 169.4626
104.400002 98.610 168.9328
106.000000 98.552 168.5977
107.500000 98.501 168.3822
109.000000 98.446 168.0529
110.599998 98.372 167.5323
112.000000 98.320 167.1201
113.800003 98.270 166.7193
115.000000 98.234 166.4480
117.199997 98.152 165.8621
118.000000 98.108 165.7189
120.599998 97.989 165.4391
122.000000 97.957 165.1759
124.099998 97.888 164.7543
125.000000 97.852 164.6575
126.500000 97.787 164.4995
128.000000 97.726 164.2074
131.500000 97.586 163.5378
132.000000 97.563 163.5004
134.000000 97.489 163.3720
136.000000 97.442 163.0795
138.000000 97.392 162.7229
140.000000 97.296 162.3148
143.000000 97.192 161.8961
145.000000 97.137 161.6737
147.500000 97.057 161.4283
150.000000 96.953 161.2889
152.500000 96.908 161.2642
155.000000 96.791 161.1949
157.500000 96.706 160.9829
160.000000 96.625 161.0097
162.500000 96.587 161.1616
165.000000 96.554 160.7796
167.500000 96.495 160.4102
170.000000 96.394 160.5664
172.500000 96.329 160.6426
175.000000 96.270 160.3877
177.500000 96.180 160.1813
180.000000 96.074 160.1447
182.500000 95.998 160.1915
185.000000 95.955 160.0672
187.500000 95.899 160.0330
190.000000 95.834 160.0189
192.500000 95.759 159.8821
195.000000 95.667 159.7711
197.500000 95.581 159.7925
200.000000 95.521 159.7703
203.000000 95.470 159.7205
206.000000 95.412 159.8516
209.000000 95.334 159.8820
212.000000 95.253 159.8239
214.000000 95.206 159.7768
218.000000 95.126 159.7400
220.000000 95.089 159.7296
224.000000 95.005 159.7851
227.000000 94.939 159.8844
230.000000 94.876 159.9420
233.000000 94.815 159.9972
236.000000 94.754 160.0394
240.000000 94.672 160.1255
243.000000 94.616 160.2131
247.000000 94.541 160.3487
250.000000 94.485 160.4763
254.000000 94.414 160.6318
258.000000 94.346 160.7891
262.000000 94.272 160.9283
265.000000 94.215 161.0463
269.000000 94.141 161.1896
272.000000 94.089 161.2679
276.000000 94.023 161.4345
280.000000 93.957 161.6387
285.000000 93.880 161.9069
290.000000 93.807 162.2002
295.000000 93.732 162.5717
300.000000 93.659 162.7452
304.000000 93.599 162.9135
307.000000 93.553 163.0553
311.000000 93.491 163.2141
315.000000 93.439 163.3799
320.000000 93.376 163.6158
325.000000 93.313 163.9020
330.000000 93.250 164.2173
335.000000 93.189 164.5232
340.000000 93.132 164.7711
345.000000 93.082 165.0460
350.000000 93.028 165.4048
355.000000 92.977 165.7281
360.000000 92.928 166.0196
365.000000 92.880 166.2966
370.000000 92.832 166.5976
375.000000 92.781 166.8838
382.000000 92.714 167.3403
387.000000 92.668 167.6700
395.000000 92.598 168.1490
400.000000 92.554 168.4442
406.000000 92.503 168.8172
412.000000 92.454 169.1887
418.000000 92.412 169.5868
425.000000 92.367 170.0369
431.000000 92.326 170.3883
437.000000 92.285 170.7711
444.000000 92.238 171.2531
450.000000 92.201 171.6418
455.000000 92.171 171.9493
462.000000 92.129 172.3661
468.000000 92.091 172.7326
475.000000 92.050 173.2208
482.000000 92.013 173.6899
487.000000 91.988 173.9981
494.000000 91.956 174.4238
500.000000 91.932 174.8024
508.000000 91.895 175.3169
515.000000 91.865 175.7885
522.000000 91.836 176.2187
530.000000 91.802 176.7185
538.000000 91.769 177.2594
545.000000 91.746 177.7128
552.000000 91.729 178.1410
560.000000 91.707 178.6332
570.000000 91.673 179.2784
580.000000 91.642 179.9449
590.000000 91.615 -179.3960
600.000000 91.592 -178.7560
608.000000 91.576 -178.2504
615.000000 91.562 -177.7960
622.000000 91.551 -177.3490
630.000000 91.537 -176.8656
640.000000 91.519 -176.2294
650.000000 91.506 -175.5596
660.000000 91.496 -174.8990
670.000000 91.485 -174.2463
680.000000 91.476 -173.5996
690.000000 91.468 -172.9519
700.000000 91.463 -172.2916
710.000000 91.462 -171.6254
720.000000 91.463 -170.9874
730.000000 91.464 -170.3615
740.000000 91.465 -169.7196
750.000000 91.462 -169.0440
762.000000 91.462 -168.2141
775.000000 91.465 -167.2622
788.000000 91.478 -166.1902
800.000000 91.508 -165.1396
812.000000 91.563 -164.1707
825.000000 91.634 -163.3024
838.000000 91.695 -162.5712
850.000000 91.743 -161.9305
862.000000 91.788 -161.2784
875.000000 91.833 -160.5614
885.000000 91.872 -160.0020
900.000000 91.937 -159.1624
912.000000 91.990 -158.5020
925.000000 92.053 -157.8056
938.000000 92.121 -157.1473
950.000000 92.188 -156.5459
962.000000 92.256 -155.9582
975.000000 92.333 -155.3400
988.000000 92.413 -154.7509
1000.000000 92.488 -154.2445
1015.000000 92.582 -153.6482
1030.000000 92.677 -153.0902
1044.000000 92.767 -152.6152
1060.000000 92.870 -152.1116
1075.000000 92.965 -151.6811
1090.000000 93.063 -151.2990
1106.000000 93.168 -150.9409
1120.000000 93.258 -150.6636
1138.000000 93.373 -150.3607
1150.000000 93.447 -150.1801
1172.000000 93.581 -149.8894
1180.000000 93.629 -149.8022
1206.000000 93.779 -149.5758
1220.000000 93.858 -149.4841
1241.000000 93.973 -149.3811
1250.000000 94.023 -149.3492
1265.000000 94.109 -149.3092
1280.000000 94.196 -149.2791
1315.000000 94.388 -149.2349
1320.000000 94.414 -149.2328
1340.000000 94.518 -149.2340
1360.000000 94.617 -149.2458
1380.000000 94.714 -149.2659
1400.000000 94.809 -149.2977
1430.000000 94.945 -149.3546
1450.000000 95.031 -149.3993
1475.000000 95.139 -149.4709
1500.000000 95.244 -149.5433
1525.000000 95.346 -149.6219
1550.000000 95.444 -149.7140
1575.000000 95.538 -149.8165
1600.000000 95.631 -149.9241
1625.000000 95.725 -150.0309
1650.000000 95.820 -150.1392
1675.000000 95.915 -150.2496
1700.000000 96.012 -150.3690
1725.000000 96.110 -150.5205
1750.000000 96.207 -150.7144
1775.000000 96.301 -150.9451
1800.000000 96.389 -151.1907
1825.000000 96.472 -151.4395
1850.000000 96.552 -151.6951
1875.000000 96.631 -151.9663
1900.000000 96.709 -152.2470
1925.000000 96.782 -152.5354
1950.000000 96.853 -152.8311
1975.000000 96.922 -153.1371
2000.000000 96.989 -153.4521
2030.000000 97.068 -153.8388
2060.000000 97.146 -154.2432
2090.000000 97.223 -154.6587
2120.000000 97.296 -155.0889
2140.000000 97.342 -155.3811
2180.000000 97.428 -155.9835
2200.000000 97.469 -156.2990
2240.000000 97.547 -156.9593
2270.000000 97.603 -157.4835
2300.000000 97.652 -158.0303
2330.000000 97.695 -158.5951
2360.000000 97.732 -159.1771
2400.000000 97.767 -159.9683
2430.000000 97.782 -160.5651
2470.000000 97.790 -161.3358
2500.000000 97.791 -161.8868
2540.000000 97.787 -162.5805
2580.000000 97.773 -163.2103
2620.000000 97.751 -163.7863
2650.000000 97.730 -164.1876
2690.000000 97.699 -164.6718
2720.000000 97.675 -164.9991
2760.000000 97.640 -165.3970
2800.000000 97.598 -165.7392
2850.000000 97.539 -166.0659
2900.000000 97.484 -166.2767
2950.000000 97.438 -166.3583
3000.000000 97.409 -166.3466
3040.000000 97.403 -166.3302
3070.000000 97.409 -166.3615
3110.000000 97.422 -166.5016
3150.000000 97.425 -166.7486
3200.000000 97.403 -167.0958
3250.000000 97.357 -167.3495
3300.000000 97.301 -167.4315
3350.000000 97.246 -167.3129
3400.000000 97.209 -166.9834
3450.000000 97.213 -166.4762
3500.000000 97.283 -165.9464
3550.000000 97.420 -165.6755
3600.000000 97.593 -165.9078
3650.000000 97.754 -166.6914
3700.000000 97.868 -167.8751
3750.000000 97.921 -169.2421
3820.000000 97.907 -171.1658
3870.000000 97.854 -172.4555
3950.000000 97.722 -174.3528
4000.000000 97.611 -175.4627
4060.000000 97.444 -176.7301
4120.000000 97.240 -177.8724
4180.000000 97.004 -178.7753
4250.000000 96.709 -179.4255
4310.000000 96.466 -179.6879
4370.000000 96.247 -179.8109
4440.000000 96.016 -179.9352
4500.000000 95.823 179.9193
4550.000000 95.655 179.7817
4620.000000 95.404 179.6149
4680.000000 95.175 179.5531
4750.000000 94.895 179.6360
4820.000000 94.612 179.9144
4870.000000 94.414 -179.7742
4940.000000 94.143 -179.2128
5000.000000 93.915 -178.6497
5080.000000 93.616 -177.8096
5150.000000 93.357 -177.0026
5220.000000 93.095 -176.1087
5300.000000 92.797 -174.8542
5380.000000 92.528 -173.3702
5450.000000 92.317 -172.0481
5520.000000 92.115 -170.6917
5600.000000 91.896 -169.0539
5700.000000 91.643 -166.8765
5800.000000 91.421 -164.5546
5900.000000 91.240 -162.1019
6000.000000 91.094 -159.5503
6080.000000 91.002 -157.4661
6150.000000 90.943 -155.6228
6220.000000 90.908 -153.7642
6300.000000 90.904 -151.6218
6400.000000 90.953 -148.9403
6500.000000 91.053 -146.2801
6600.000000 91.202 -143.6599
6700.000000 91.406 -141.1133
6800.000000 91.665 -138.6778
6900.000000 91.985 -136.3909
7000.000000 92.369 -134.3012
7100.000000 92.824 -132.4654
7200.000000 93.362 -130.9710
7300.000000 93.988 -129.9640
7400.000000 94.705 -129.6393
7500.000000 95.509 -130.2324
7620.000000 96.569 -132.5670
7750.000000 97.751 -137.7532
7880.000000 98.760 -146.2569
8000.000000 99.274 -156.7459
8120.000000 99.188 -168.3767
8250.000000 98.410 179.9915
8380.000000 97.135 171.1504
8500.000000 95.767 165.9010
8620.000000 94.396 163.0890
8750.000000 93.017 162.1191
8850.000000 92.059 162.4101
9000.000000 90.792 163.9587
9120.000000 89.921 165.8553
9250.000000 89.107 168.3351
9380.000000 88.413 171.1247
9500.000000 87.870 173.8700
9620.000000 87.413 176.7071
9750.000000 87.008 179.8435
9880.000000 86.697 -176.9744
10000.000000 86.498 -174.0346
10150.000000 86.375 -170.4170
10300.000000 86.390 -166.9633
10440.000000 86.525 -163.9988
10600.000000 86.825 -161.0867
10750.000000 87.244 -159.0007
10900.000000 87.791 -157.7228
11060.000000 88.513 -157.5198
11200.000000 89.252 -158.6444
11380.000000 90.294 -162.5132
11500.000000 90.972 -166.9550
11720.000000 91.889 -179.1197
11800.000000 92.030 175.4254
12060.000000 91.543 156.8452
12200.000000 90.738 148.1204
12410.000000 89.135 138.4593
12500.000000 88.400 135.6057
12650.000000 87.210 132.2944
12800.000000 86.115 130.4312
13150.000000 84.067 129.6635
13200.000000 83.833 129.8158
13400.000000 83.046 130.8335
13600.000000 82.510 132.3256
13800.000000 82.262 134.2032
14000.000000 82.397 136.0802
14300.000000 83.534 136.1631
14500.000000 84.811 131.2629
14750.000000 85.860 116.4885
15000.000000 84.861 108.0555
15250.000000 86.075 113.7061
15500.000000 88.811 101.7908
15750.000000 90.843 80.8506
16000.000000 92.103 55.9225
16250.000000 92.634 29.0969
16500.000000 92.673 1.7421
16750.000000 92.534 -26.2563
17000.000000 92.310 -56.4043
17250.000000 91.675 -89.7202
17500.000000 90.127 -124.5792
17750.000000 87.523 -157.3701
18000.000000 84.238 174.4131
18250.000000 80.865 150.8575
18500.000000 77.970 130.2568
18750.000000 76.049 109.5103
19000.000000 75.274 84.5421
19250.000000 75.161 52.3370
19500.000000 74.993 12.4047
19750.000000 74.439 -33.6401
20000.000000 73.863 -73.3351
