* Measurement data measured by REW V5.30.9
* Source: Headset (JA3 HIFI AUDIO(CX31993)), MICROPHONE (Master Volume), L, volume: 0.250
* Format: 512k Log Swept Sine, 1 sweep at -13.0 dBFS with no timing reference
* Dated: Feb 24, 2024 2:12:56 PM
* REW Settings:
*  C-weighting compensation: Off
*  Target level: 75.0 dB
* Note: ; 
* Measurement: SeeAudio Yume Midnight L
* Smoothing: 1/12 octave
* Frequency Step: 1/48 octave
* Start Frequency: 1.000 Hz
*
* Freq(Hz) SPL(dB) Phase(degrees)
1.000000 83.177 -3.9521
1.015000 83.399 -4.8848
1.030000 83.618 -5.8087
1.044000 83.821 -6.6650
1.060000 84.050 -7.6388
1.075000 84.263 -8.5492
1.090000 84.473 -9.4590
1.106000 84.695 -10.4305
1.120000 84.886 -11.2818
1.138000 85.126 -12.3767
1.150000 85.284 -13.1057
1.172000 85.567 -14.4370
1.180000 85.668 -14.9187
1.206000 85.990 -16.4719
1.220000 86.159 -17.2988
1.241000 86.408 -18.5248
1.250000 86.513 -19.0445
1.265000 86.685 -19.9024
1.280000 86.855 -20.7496
1.315000 87.242 -22.6826
1.320000 87.297 -22.9536
1.340000 87.512 -24.0246
1.360000 87.723 -25.0746
1.380000 87.931 -26.1038
1.400000 88.136 -27.1124
1.430000 88.440 -28.5888
1.450000 88.638 -29.5508
1.475000 88.883 -30.7329
1.500000 89.122 -31.8980
1.525000 89.355 -33.0496
1.550000 89.582 -34.1883
1.575000 89.803 -35.3135
1.600000 90.018 -36.4250
1.625000 90.228 -37.5226
1.650000 90.434 -38.6062
1.675000 90.634 -39.6761
1.700000 90.831 -40.7329
1.725000 91.023 -41.7770
1.750000 91.212 -42.8095
1.775000 91.398 -43.8314
1.800000 91.580 -44.8446
1.825000 91.760 -45.8519
1.850000 91.936 -46.8570
1.875000 92.107 -47.8626
1.900000 92.275 -48.8690
1.925000 92.439 -49.8747
1.950000 92.598 -50.8773
1.975000 92.754 -51.8745
2.000000 92.906 -52.8640
2.030000 93.085 -54.0388
2.060000 93.258 -55.1971
2.090000 93.428 -56.3366
2.120000 93.593 -57.4560
2.140000 93.702 -58.1909
2.180000 93.914 -59.6357
2.200000 94.018 -60.3483
2.240000 94.219 -61.7625
2.270000 94.366 -62.8181
2.300000 94.508 -63.8695
2.330000 94.646 -64.9149
2.360000 94.780 -65.9518
2.400000 94.953 -67.3165
2.430000 95.079 -68.3236
2.470000 95.242 -69.6409
2.500000 95.361 -70.6082
2.540000 95.516 -71.8707
2.580000 95.665 -73.1076
2.620000 95.809 -74.3279
2.650000 95.914 -75.2356
2.690000 96.048 -76.4360
2.720000 96.145 -77.3272
2.760000 96.271 -78.5005
2.800000 96.392 -79.6529
2.850000 96.539 -81.0589
2.900000 96.679 -82.4237
2.950000 96.815 -83.7511
3.000000 96.944 -85.0512
3.040000 97.043 -86.0756
3.070000 97.114 -86.8347
3.110000 97.207 -87.8333
3.150000 97.297 -88.8139
3.200000 97.405 -90.0109
3.250000 97.510 -91.1726
3.300000 97.611 -92.2986
3.350000 97.709 -93.3931
3.400000 97.802 -94.4608
3.450000 97.893 -95.5044
3.500000 97.980 -96.5241
3.550000 98.064 -97.5192
3.600000 98.147 -98.4888
3.650000 98.228 -99.4325
3.700000 98.308 -100.3510
3.750000 98.385 -101.2463
3.820000 98.491 -102.4648
3.870000 98.564 -103.3125
3.950000 98.680 -104.6327
4.000000 98.751 -105.4362
4.060000 98.836 -106.3789
4.120000 98.920 -107.2989
4.180000 99.002 -108.1985
4.250000 99.098 -109.2266
4.310000 99.179 -110.0934
4.370000 99.259 -110.9495
4.440000 99.352 -111.9362
4.500000 99.431 -112.7718
4.550000 99.496 -113.4615
4.620000 99.586 -114.4186
4.680000 99.662 -115.2333
4.750000 99.748 -116.1794
4.820000 99.833 -117.1224
4.870000 99.893 -117.7941
4.940000 99.974 -118.7313
5.000000 100.042 -119.5312
5.080000 100.129 -120.5925
5.150000 100.202 -121.5172
5.220000 100.272 -122.4393
5.300000 100.348 -123.4885
5.380000 100.419 -124.5289
5.450000 100.478 -125.4290
5.520000 100.533 -126.3191
5.600000 100.592 -127.3246
5.700000 100.659 -128.5614
5.800000 100.719 -129.7678
5.900000 100.773 -130.9378
6.000000 100.820 -132.0714
6.080000 100.854 -132.9510
6.150000 100.882 -133.6989
6.220000 100.908 -134.4248
6.300000 100.935 -135.2273
6.400000 100.967 -136.1913
6.500000 100.997 -137.1139
6.600000 101.027 -137.9964
6.700000 101.056 -138.8401
6.800000 101.086 -139.6495
6.900000 101.117 -140.4313
7.000000 101.150 -141.1906
7.100000 101.184 -141.9309
7.200000 101.220 -142.6581
7.300000 101.258 -143.3789
7.400000 101.297 -144.0982
7.500000 101.336 -144.8187
7.620000 101.384 -145.6888
7.750000 101.434 -146.6438
7.880000 101.482 -147.6127
8.000000 101.522 -148.5166
8.120000 101.557 -149.4269
8.250000 101.589 -150.4154
8.380000 101.614 -151.3970
8.500000 101.631 -152.2890
8.620000 101.641 -153.1611
8.750000 101.646 -154.0746
8.850000 101.646 -154.7496
9.000000 101.640 -155.7115
9.120000 101.632 -156.4335
9.250000 101.623 -157.1655
9.380000 101.613 -157.8469
9.500000 101.606 -158.4349
9.620000 101.601 -158.9882
9.750000 101.597 -159.5560
9.880000 101.594 -160.1015
10.000000 101.592 -160.5942
10.150000 101.589 -161.2077
10.300000 101.587 -161.8331
10.440000 101.586 -162.4375
10.600000 101.585 -163.1603
10.750000 101.584 -163.8722
10.900000 101.581 -164.6150
11.060000 101.573 -165.4338
11.200000 101.561 -166.1640
11.380000 101.538 -167.1045
11.500000 101.517 -167.7225
11.720000 101.470 -168.8132
11.800000 101.450 -169.1907
12.060000 101.382 -170.3303
12.200000 101.347 -170.8848
12.410000 101.301 -171.6439
12.500000 101.287 -171.9467
12.650000 101.271 -172.4295
12.800000 101.265 -172.8963
13.150000 101.279 -173.9963
13.200000 101.284 -174.1611
13.400000 101.305 -174.8510
13.600000 101.326 -175.5947
13.800000 101.344 -176.3876
14.000000 101.354 -177.2121
14.300000 101.350 -178.4514
14.500000 101.335 -179.2383
14.750000 101.307 179.8608
15.000000 101.276 179.0667
15.250000 101.252 178.3628
15.500000 101.239 177.7032
15.750000 101.237 177.0302
16.000000 101.240 176.2975
16.250000 101.239 175.4909
16.500000 101.223 174.6374
16.750000 101.184 173.7995
17.000000 101.124 173.0569
17.250000 101.051 172.4782
17.500000 100.981 172.0924
17.750000 100.930 171.8674
18.000000 100.911 171.7118
18.250000 100.928 171.5032
18.500000 100.972 171.1230
18.750000 101.024 170.4954
19.000000 101.062 169.6218
19.250000 101.068 168.5774
19.500000 101.034 167.4839
19.750000 100.962 166.4739
20.000000 100.866 165.6550
20.299999 100.747 164.9873
20.600000 100.662 164.5940
20.900000 100.631 164.2909
21.200001 100.650 163.8606
21.400000 100.677 163.4306
21.799999 100.724 162.2283
22.000000 100.729 161.5274
22.400000 100.698 160.1779
22.700001 100.657 159.3638
23.000000 100.632 158.7397
23.299999 100.638 158.2031
23.600000 100.676 157.6070
24.000000 100.739 156.5667
24.299999 100.763 155.6487
24.700001 100.744 154.5067
25.000000 100.707 153.8968
25.400000 100.681 153.4742
25.799999 100.731 153.2041
26.200001 100.846 152.5890
26.500000 100.930 151.7249
26.900000 100.970 150.1433
27.200001 100.917 148.8836
27.600000 100.746 147.5468
28.000000 100.521 146.9316
28.500000 100.297 147.0981
29.000000 100.215 147.5150
29.500000 100.217 147.4158
30.000000 100.198 146.7692
30.400000 100.144 146.1328
30.700001 100.088 145.7060
31.100000 100.013 145.2402
31.500000 99.951 144.8498
32.000000 99.896 144.3747
32.500000 99.859 143.8744
33.000000 99.841 143.3317
33.500000 99.839 142.6871
34.000000 99.836 141.9001
34.500000 99.810 141.0439
35.000000 99.758 140.2692
35.500000 99.697 139.6573
36.000000 99.646 139.1418
36.500000 99.602 138.5937
37.000000 99.549 137.9705
37.500000 99.476 137.3508
38.200001 99.361 136.6400
38.700001 99.298 136.1776
39.500000 99.228 135.1756
40.000000 99.176 134.3426
40.599998 99.086 133.2966
41.200001 98.977 132.3864
41.799999 98.871 131.7065
42.500000 98.783 131.1774
43.099998 98.752 130.8071
43.700001 98.755 130.3296
44.400002 98.761 129.5380
45.000000 98.742 128.7523
45.500000 98.707 128.1056
46.200001 98.640 127.2436
46.799999 98.569 126.5308
47.500000 98.474 125.7474
48.200001 98.381 125.0045
48.700001 98.320 124.4541
49.400002 98.231 123.6512
50.000000 98.151 123.0154
50.799999 98.059 122.3486
51.500000 98.009 121.8671
52.200001 97.984 121.3663
53.000000 97.963 120.7253
53.799999 97.932 120.0508
54.500000 97.890 119.5005
55.200001 97.844 119.0099
56.000000 97.798 118.4268
57.000000 97.735 117.4718
58.000000 97.632 116.3346
59.000000 97.494 115.3871
60.000000 97.382 114.7141
60.799999 97.322 114.1694
61.500000 97.273 113.6451
62.200001 97.221 113.1230
63.000000 97.157 112.5441
64.000000 97.067 111.8384
65.000000 96.965 111.1911
66.000000 96.868 110.6048
67.000000 96.786 109.9988
68.000000 96.719 109.3146
69.000000 96.658 108.5659
70.000000 96.592 107.7909
71.000000 96.514 107.1004
72.000000 96.436 106.5581
73.000000 96.370 106.0953
74.000000 96.318 105.6095
75.000000 96.274 105.0317
76.199997 96.221 104.2336
77.500000 96.162 103.3181
78.800003 96.088 102.4155
80.000000 96.003 101.7618
81.199997 95.924 101.2739
82.500000 95.854 100.6668
83.800003 95.779 99.8359
85.000000 95.702 98.9261
86.199997 95.631 97.9348
87.500000 95.565 96.7699
88.500000 95.511 95.8412
90.000000 95.397 94.6540
91.199997 95.293 94.1668
92.500000 95.220 93.9792
93.800003 95.188 93.7301
95.000000 95.163 93.3206
96.199997 95.127 92.8137
97.500000 95.076 92.2083
98.800003 95.004 91.5936
100.000000 94.921 91.1174
101.500000 94.815 90.6364
103.000000 94.718 90.1715
104.400002 94.646 89.6398
106.000000 94.581 88.8926
107.500000 94.526 88.0620
109.000000 94.468 87.2473
110.599998 94.398 86.4451
112.000000 94.328 85.8275
113.800003 94.227 85.1414
115.000000 94.160 84.7856
117.199997 94.061 84.1314
118.000000 94.028 83.8469
120.599998 93.924 82.7969
122.000000 93.874 82.1371
124.099998 93.803 81.1384
125.000000 93.776 80.7556
126.500000 93.733 80.1967
128.000000 93.691 79.7047
131.500000 93.560 78.4729
132.000000 93.538 78.2633
134.000000 93.442 77.3730
136.000000 93.349 76.5374
138.000000 93.273 75.8939
140.000000 93.218 75.4294
143.000000 93.145 74.7461
145.000000 93.090 74.2374
147.500000 93.030 73.5589
150.000000 92.982 72.8880
152.500000 92.924 72.2789
155.000000 92.859 71.6933
157.500000 92.802 70.9835
160.000000 92.772 70.1860
162.500000 92.740 69.2284
165.000000 92.654 68.4440
167.500000 92.550 68.0524
170.000000 92.434 67.8338
172.500000 92.312 67.8043
175.000000 92.227 67.6708
177.500000 92.177 67.1061
180.000000 92.153 66.2091
182.500000 92.150 65.2181
185.000000 92.154 64.4936
187.500000 92.142 64.1122
190.000000 92.087 63.8299
192.500000 92.008 63.3540
195.000000 91.945 62.6643
197.500000 91.912 61.9811
200.000000 91.903 61.4059
203.000000 91.908 60.6654
206.000000 91.904 59.8473
209.000000 91.856 59.1841
212.000000 91.768 58.7738
214.000000 91.711 58.5596
218.000000 91.658 58.0998
220.000000 91.659 57.8438
224.000000 91.659 57.2789
227.000000 91.631 56.7689
230.000000 91.590 56.1656
233.000000 91.553 55.5198
236.000000 91.519 54.9201
240.000000 91.474 54.2787
243.000000 91.437 53.8883
247.000000 91.386 53.3663
250.000000 91.348 52.8929
254.000000 91.292 52.2565
258.000000 91.243 51.7354
262.000000 91.204 51.2605
265.000000 91.180 50.8752
269.000000 91.149 50.3688
272.000000 91.126 50.0350
276.000000 91.090 49.6033
280.000000 91.052 49.1448
285.000000 91.009 48.5571
290.000000 90.972 48.0486
295.000000 90.934 47.5845
300.000000 90.896 47.0339
304.000000 90.856 46.4883
307.000000 90.821 46.1647
311.000000 90.782 45.8547
315.000000 90.747 45.5935
320.000000 90.711 45.3204
325.000000 90.690 44.9608
330.000000 90.668 44.5102
335.000000 90.634 44.0894
340.000000 90.598 43.6876
345.000000 90.561 43.3145
350.000000 90.520 42.9704
355.000000 90.482 42.6157
360.000000 90.453 42.2562
365.000000 90.431 41.9314
370.000000 90.411 41.6435
375.000000 90.394 41.3751
382.000000 90.368 41.0433
387.000000 90.351 40.8585
395.000000 90.326 40.5808
400.000000 90.308 40.3930
406.000000 90.290 40.1293
412.000000 90.280 39.8529
418.000000 90.268 39.5717
425.000000 90.240 39.2466
431.000000 90.209 39.0532
437.000000 90.189 38.9605
444.000000 90.183 38.7595
450.000000 90.167 38.5462
455.000000 90.146 38.4418
462.000000 90.110 38.3315
468.000000 90.073 38.1601
475.000000 90.032 37.8746
482.000000 89.995 37.6511
487.000000 89.967 37.5525
494.000000 89.924 37.4779
500.000000 89.894 37.4492
508.000000 89.870 37.4294
515.000000 89.864 37.4511
522.000000 89.869 37.5451
530.000000 89.869 37.6890
538.000000 89.859 37.7700
545.000000 89.849 37.8112
552.000000 89.841 37.8240
560.000000 89.834 37.8176
570.000000 89.820 37.8559
580.000000 89.812 37.9021
590.000000 89.818 37.9469
600.000000 89.828 38.0406
608.000000 89.834 38.1425
615.000000 89.837 38.2404
622.000000 89.836 38.3381
630.000000 89.832 38.4341
640.000000 89.833 38.5484
650.000000 89.838 38.6684
660.000000 89.844 38.8134
670.000000 89.850 39.0170
680.000000 89.857 39.2517
690.000000 89.863 39.4974
700.000000 89.873 39.7262
710.000000 89.886 39.9144
720.000000 89.901 40.0809
730.000000 89.918 40.2510
740.000000 89.938 40.4450
750.000000 89.958 40.6710
762.000000 89.983 40.9946
775.000000 90.010 41.3810
788.000000 90.036 41.7559
800.000000 90.062 42.1115
812.000000 90.088 42.4901
825.000000 90.121 42.9261
838.000000 90.164 43.3843
850.000000 90.208 43.8177
862.000000 90.255 44.2456
875.000000 90.309 44.6922
885.000000 90.356 45.0232
900.000000 90.435 45.5064
912.000000 90.506 45.8744
925.000000 90.582 46.2535
938.000000 90.660 46.6064
950.000000 90.733 46.8965
962.000000 90.806 47.1615
975.000000 90.885 47.4370
988.000000 90.968 47.7005
1000.000000 91.047 47.9225
1015.000000 91.152 48.1711
1030.000000 91.257 48.3794
1044.000000 91.353 48.5231
1060.000000 91.460 48.6426
1075.000000 91.559 48.7329
1090.000000 91.659 48.8086
1106.000000 91.766 48.8610
1120.000000 91.860 48.8546
1138.000000 91.976 48.7972
1150.000000 92.049 48.7411
1172.000000 92.179 48.5710
1180.000000 92.226 48.4914
1206.000000 92.371 48.2003
1220.000000 92.446 48.0226
1241.000000 92.554 47.7300
1250.000000 92.600 47.5989
1265.000000 92.675 47.3771
1280.000000 92.748 47.1521
1315.000000 92.909 46.6245
1320.000000 92.931 46.5488
1340.000000 93.015 46.2489
1360.000000 93.094 45.9601
1380.000000 93.169 45.6808
1400.000000 93.239 45.4160
1430.000000 93.337 45.0495
1450.000000 93.398 44.8262
1475.000000 93.472 44.5648
1500.000000 93.545 44.3243
1525.000000 93.616 44.1058
1550.000000 93.686 43.9107
1575.000000 93.756 43.7334
1600.000000 93.827 43.5711
1625.000000 93.899 43.4211
1650.000000 93.974 43.2771
1675.000000 94.049 43.1351
1700.000000 94.125 42.9979
1725.000000 94.200 42.8655
1750.000000 94.275 42.7355
1775.000000 94.351 42.6098
1800.000000 94.428 42.4885
1825.000000 94.506 42.3660
1850.000000 94.586 42.2382
1875.000000 94.667 42.1063
1900.000000 94.750 41.9683
1925.000000 94.834 41.8190
1950.000000 94.919 41.6568
1975.000000 95.004 41.4812
2000.000000 95.091 41.2928
2030.000000 95.196 41.0505
2060.000000 95.302 40.7843
2090.000000 95.408 40.4895
2120.000000 95.514 40.1664
2140.000000 95.584 39.9357
2180.000000 95.721 39.4416
2200.000000 95.789 39.1803
2240.000000 95.922 38.6278
2270.000000 96.019 38.1835
2300.000000 96.113 37.7170
2330.000000 96.205 37.2317
2360.000000 96.294 36.7296
2400.000000 96.410 36.0343
2430.000000 96.495 35.4904
2470.000000 96.605 34.7291
2500.000000 96.686 34.1261
2540.000000 96.789 33.2772
2580.000000 96.886 32.3768
2620.000000 96.974 31.4253
2650.000000 97.032 30.6809
2690.000000 97.099 29.6586
2720.000000 97.139 28.8806
2760.000000 97.180 27.8497
2800.000000 97.209 26.8477
2850.000000 97.238 25.6287
2900.000000 97.258 24.3987
2950.000000 97.262 23.1429
3000.000000 97.248 21.9011
3040.000000 97.224 20.9391
3070.000000 97.201 20.2375
3110.000000 97.165 19.3214
3150.000000 97.121 18.4123
3200.000000 97.051 17.2832
3250.000000 96.962 16.1982
3300.000000 96.853 15.2041
3350.000000 96.730 14.3306
3400.000000 96.600 13.5889
3450.000000 96.466 12.9769
3500.000000 96.334 12.4790
3550.000000 96.204 12.0804
3600.000000 96.078 11.7723
3650.000000 95.958 11.5447
3700.000000 95.844 11.3884
3750.000000 95.737 11.3014
3820.000000 95.600 11.2943
3870.000000 95.518 11.3528
3950.000000 95.415 11.4817
4000.000000 95.367 11.5364
4060.000000 95.323 11.5418
4120.000000 95.291 11.4626
4180.000000 95.269 11.2766
4250.000000 95.255 10.8736
4310.000000 95.247 10.3137
4370.000000 95.232 9.5079
4440.000000 95.186 8.2180
4500.000000 95.097 6.8307
4550.000000 94.968 5.5488
4620.000000 94.681 3.8120
4680.000000 94.335 2.7033
4750.000000 93.848 2.2724
4820.000000 93.351 2.9926
4870.000000 93.039 4.1329
4940.000000 92.708 6.2672
5000.000000 92.528 8.2495
5080.000000 92.408 10.6935
5150.000000 92.377 12.4787
5220.000000 92.380 13.9233
5300.000000 92.400 15.2358
5380.000000 92.426 16.2897
5450.000000 92.447 17.0663
5520.000000 92.467 17.7484
5600.000000 92.488 18.4461
5700.000000 92.512 19.2375
5800.000000 92.536 19.9787
5900.000000 92.563 20.7007
6000.000000 92.597 21.4248
6080.000000 92.633 22.0112
6150.000000 92.671 22.5283
6220.000000 92.718 23.0482
6300.000000 92.785 23.6476
6400.000000 92.889 24.4265
6500.000000 93.020 25.2788
6600.000000 93.185 26.2361
6700.000000 93.397 27.2980
6800.000000 93.675 28.4124
6900.000000 94.033 29.4797
7000.000000 94.488 30.3584
7100.000000 95.047 30.8596
7200.000000 95.712 30.7571
7300.000000 96.470 29.8026
7400.000000 97.293 27.7371
7500.000000 98.136 24.3255
7620.000000 99.076 18.2614
7750.000000 99.850 9.3915
7880.000000 100.201 -1.1376
8000.000000 100.065 -11.2422
8120.000000 99.502 -20.6181
8250.000000 98.522 -29.0217
8380.000000 97.322 -35.1467
8500.000000 96.158 -38.8017
8620.000000 95.032 -40.8165
8750.000000 93.918 -41.5718
8850.000000 93.154 -41.4142
9000.000000 92.170 -40.3724
9120.000000 91.515 -39.0891
9250.000000 90.929 -37.4551
9380.000000 90.459 -35.7340
9500.000000 90.118 -34.2010
9620.000000 89.853 -32.8306
9750.000000 89.636 -31.6346
9880.000000 89.472 -30.8264
10000.000000 89.347 -30.4664
10150.000000 89.194 -30.5274
10300.000000 89.006 -31.0378
10440.000000 88.769 -31.7219
10600.000000 88.408 -32.4542
10750.000000 87.988 -32.8026
10900.000000 87.512 -32.5840
11060.000000 86.982 -31.5757
11200.000000 86.539 -30.0233
11380.000000 86.047 -27.2586
11500.000000 85.789 -25.1135
11720.000000 85.472 -21.0497
11800.000000 85.400 -19.6262
12060.000000 85.282 -15.4512
12200.000000 85.269 -13.5474
12410.000000 85.277 -11.1143
12500.000000 85.284 -10.1920
12650.000000 85.294 -8.7411
12800.000000 85.299 -7.2944
13150.000000 85.345 -3.4196
13200.000000 85.365 -2.8108
13400.000000 85.506 -0.4017
13600.000000 85.741 1.6183
13800.000000 86.035 2.8289
14000.000000 86.316 3.0527
14300.000000 86.560 1.9790
14500.000000 86.558 0.9874
14750.000000 86.409 0.2073
15000.000000 86.207 0.1626
15250.000000 86.037 0.3652
15500.000000 85.864 0.1149
15750.000000 85.548 -0.5811
16000.000000 84.985 -0.6948
16250.000000 84.231 1.0701
16500.000000 83.493 5.2261
16750.000000 82.991 11.1676
17000.000000 82.856 17.6673
17250.000000 83.105 23.5514
17500.000000 83.693 27.9209
17750.000000 84.529 30.0139
18000.000000 85.455 29.2804
18250.000000 86.275 25.7229
18500.000000 86.829 20.0236
18750.000000 87.050 13.2015
19000.000000 86.956 6.0807
19250.000000 86.576 -0.9312
19500.000000 85.899 -7.6190
19750.000000 84.879 -13.6483
20000.000000 83.481 -18.4998
20300.000000 81.312 -22.0667
20600.000000 78.665 -22.7457
20900.000000 75.616 -20.6038
21200.000000 72.228 -16.2260
21400.000000 69.804 -12.5656
21800.000000 64.588 -4.9962
22000.000000 61.806 -1.6523
22400.000000 55.956 3.5555
22700.000000 51.588 6.3647
23000.000000 48.383 8.3772
23300.000000 48.330 8.6980
23600.000000 50.319 3.9205
24000.000000 52.197 -23.5251
